# 	 t (ps)	 T (K)	E (eV)	K (eV)	P (Bar)	MSD_I(Å²)	MSD_Ag(Å²)
5.1	532.2255	-1165.258	59.370555	16843.872	0.082924745	0.11327893
5.2	565.94144	-1167.7308	63.131619	16708.554	0.19213445	0.37105305
5.3	555.92386	-1165.4791	62.014143	17345.081	0.25072077	0.6746236
5.4	553.72059	-1163.5771	61.768365	17192.371	0.28228572	0.95552521
5.5	561.52846	-1162.1436	62.639344	17129.164	0.29079654	1.1878239
5.6	578.02672	-1162.4275	64.47975	17424.162	0.2894669	1.3817432
5.7	569.32775	-1161.3765	63.509368	17772.17	0.30374554	1.5602403
5.8	569.43755	-1162.2531	63.521616	17456.516	0.31310696	1.7570137
5.9	560.23187	-1162.7313	62.494709	16717.313	0.31943566	1.9742915
6.0	541.60624	-1161.5001	60.416992	16677.673	0.32155951	2.2205789
6.1	551.68133	-1162.4833	61.540883	16772.694	0.32991455	2.4307927
6.2	549.80618	-1162.1656	61.331707	17283.479	0.34752354	2.6025773
6.3	564.50997	-1164.3338	62.971937	16957.617	0.35739706	2.7253782
6.4	539.6039	-1162.5529	60.193627	17586.453	0.37440816	2.851489
6.5	545.3972	-1164.0316	60.839878	17446.457	0.37504512	3.0097495
6.6	549.60721	-1165.5327	61.309512	16774.324	0.36239223	3.1810289
6.7	529.24173	-1164.1251	59.037712	17231.384	0.35658854	3.3372018
6.8	544.5844	-1166.1104	60.74921	17083.855	0.34407225	3.4859143
6.9	517.90477	-1163.1028	57.773057	17135.185	0.34240574	3.6610468
7.0	570.09891	-1166.979	63.595392	16104.883	0.34812991	3.8142281
7.1	558.11805	-1163.5764	62.258909	16992.324	0.36124069	3.9637527
7.2	583.37031	-1165.5474	65.075836	17404.817	0.37038979	4.1470553
7.3	552.15761	-1162.7863	61.594012	17045.641	0.38738502	4.3625924
7.4	533.41109	-1161.6229	59.50281	17152.888	0.41976789	4.543574
7.5	557.86882	-1164.7933	62.231106	16825.918	0.41438203	4.7328042
7.6	562.20785	-1166.0515	62.715132	16837.947	0.39115506	4.8994284
7.7	537.37322	-1165.7199	59.944792	16891.13	0.36896035	5.042829
7.8	546.77194	-1169.3036	60.993233	16374.267	0.361758	5.1392276
7.9	529.3534	-1168.286	59.050168	17179.469	0.37007499	5.2618528
8.0	510.76017	-1165.6928	56.976065	17052.822	0.35893207	5.4428538
8.1	534.7912	-1166.5258	59.656764	16535.268	0.34450986	5.636357
8.2	556.00723	-1167.0767	62.023443	16300.18	0.33534372	5.7548702
8.3	552.27321	-1165.5929	61.606908	16685.421	0.33038928	5.8070434
8.4	545.29713	-1164.2731	60.828715	16657.949	0.33480557	5.9004469
8.5	541.82572	-1163.2525	60.441475	16869.449	0.33901229	6.0567148
8.6	563.21543	-1164.5573	62.827529	16791.399	0.33827557	6.2612436
8.7	544.40768	-1161.7402	60.729497	16772.788	0.34839529	6.4726495
8.8	546.30365	-1161.1818	60.940995	17127.586	0.35858649	6.6881948
8.9	575.88712	-1163.2797	64.241075	17181.37	0.36367365	6.8980959
9.0	586.35276	-1163.8359	65.408533	16959.768	0.37347803	7.1549845
9.1	560.95964	-1162.4059	62.575892	17374.995	0.39424404	7.4016193
9.2	560.5388	-1164.8604	62.528946	17339.608	0.40544752	7.6726543
9.3	533.9403	-1163.603	59.561844	17269.752	0.40919687	7.8444093
9.4	552.97557	-1166.2965	61.685258	17015.486	0.40384392	7.9435601
9.5	555.73787	-1167.1412	61.993395	16318.921	0.39923391	8.0870296
9.6	504.12189	-1161.7674	56.235555	16721.386	0.40482566	8.3240012
9.7	528.47145	-1163.0315	58.951786	17026.929	0.40705401	8.5489857
9.8	567.88428	-1164.9698	63.348346	16443.866	0.41005604	8.7654918
9.9	573.38293	-1164.7298	63.961729	16701.018	0.41109336	9.0418825
10.0	562.17897	-1163.8892	62.71191	16409.758	0.3943215	9.3285884
10.1	566.54319	-1165.0337	63.198745	16293.406	0.38468538	9.4834679
10.2	550.56779	-1164.4448	61.416665	16596.845	0.38261292	9.5631006
10.3	531.82701	-1163.5666	59.326103	16832.227	0.38794258	9.6443982
10.4	543.62823	-1165.0842	60.642548	16582.73	0.38827275	9.8147077
10.5	544.82502	-1164.8218	60.776052	16404.936	0.38272365	10.013579
10.6	552.55513	-1164.8386	61.638357	16403.967	0.37875295	10.205624
10.7	565.29469	-1164.1342	63.059473	16051.979	0.37269316	10.348018
10.8	579.0912	-1162.9523	64.598495	16107.274	0.36391353	10.492603
10.9	545.91028	-1158.409	60.897114	17387.079	0.38214428	10.619144
11.0	565.33426	-1160.2849	63.063888	16659.369	0.39760295	10.72966
11.1	586.91116	-1163.1342	65.470824	16707.901	0.40660708	10.884027
11.2	542.79868	-1159.8945	60.55001	16928.092	0.42550242	11.083023
11.3	565.51846	-1163.8302	63.084435	16421.772	0.43390872	11.30048
11.4	532.66166	-1161.0926	59.41921	17102.828	0.43092631	11.49707
11.5	550.80317	-1162.9677	61.442923	16581.776	0.43199439	11.6407
11.6	551.91764	-1163.0191	61.567243	16700.878	0.44336453	11.749091
11.7	547.88265	-1162.618	61.117134	16284.521	0.43109673	11.842244
11.8	543.04162	-1161.9183	60.57711	16122.59	0.40335087	11.942184
11.9	551.40574	-1162.1461	61.51014	16565.844	0.39418138	12.023298
12.0	570.91459	-1162.9683	63.686382	16763.465	0.40226935	12.187388
12.1	586.21009	-1163.5236	65.392618	16706.481	0.41061937	12.397955
12.2	565.62411	-1161.1674	63.096221	16693.726	0.42346931	12.591872
12.3	549.8681	-1160.4095	61.338614	16739.388	0.42806888	12.8799
12.4	546.80692	-1162.1204	60.997135	16419.965	0.41914671	13.150379
12.5	530.53171	-1162.1207	59.181611	17025.586	0.41742044	13.282996
12.6	557.94238	-1165.9751	62.239312	16416.847	0.40363116	13.410862
12.7	554.12137	-1166.3406	61.813073	16332.713	0.39867585	13.605582
12.8	548.23834	-1166.4041	61.156812	17152.697	0.40122005	13.829047
12.9	532.40432	-1165.4293	59.390503	16662.549	0.40447916	14.123115
13.0	538.8197	-1166.5743	60.106149	16095.115	0.41543529	14.527054
13.1	523.78247	-1164.3753	58.428722	16946.147	0.4363147	14.97508
13.2	531.35443	-1162.512	59.273386	16758.888	0.44098836	15.274595
13.3	554.98843	-1162.5111	61.909795	16875.878	0.43461225	15.425072
13.4	559.72404	-1161.8936	62.43806	16355.025	0.44864151	15.504832
13.5	557.51538	-1161.2689	62.19168	17038.825	0.45194483	15.665448
13.6	568.04144	-1162.7966	63.365877	16774.924	0.44314671	15.893904
13.7	553.82468	-1162.7217	61.779977	16900.697	0.44584143	16.066011
13.8	543.65116	-1163.0668	60.645105	17072.12	0.43609661	16.131911
13.9	545.45152	-1164.097	60.845938	16612.809	0.43012991	16.211221
14.0	547.15376	-1164.6969	61.035826	16972.773	0.43211282	16.274007
14.1	536.91337	-1163.4974	59.893495	17257.467	0.43006673	16.328791
14.2	530.81073	-1161.5497	59.212735	16549.545	0.42729554	16.42205
14.3	573.65713	-1163.2596	63.992317	16517.344	0.41702694	16.571534
14.4	564.0301	-1160.9446	62.918407	17283.65	0.41588238	16.792434
14.5	552.19692	-1159.7224	61.598397	17557.304	0.41970257	16.998673
14.6	571.85216	-1162.2909	63.790969	16995.613	0.41693693	17.143922
14.7	555.58256	-1161.5122	61.976071	16430.902	0.41554521	17.314874
14.8	564.49771	-1164.1405	62.970569	16851.519	0.4235049	17.507531
14.9	555.2648	-1164.9899	61.940624	16962.79	0.43916415	17.660254
15.0	552.50756	-1165.8389	61.63305	17082.765	0.44881644	17.825533
15.1	554.91403	-1166.7562	61.901495	16895.241	0.46592944	18.05998
15.2	536.77405	-1165.2847	59.877953	17020.3	0.47485534	18.325549
15.3	556.88867	-1167.761	62.12177	16774.75	0.47298808	18.536979
15.4	540.01339	-1166.0869	60.239306	16798.496	0.47960586	18.760592
15.5	528.03684	-1164.006	58.903304	17082.76	0.4894118	18.980004
15.6	545.30682	-1163.5375	60.829796	17483.898	0.5107224	19.068363
15.7	547.00733	-1161.7146	61.019491	17318.356	0.53081945	19.199539
15.8	542.49647	-1160.1682	60.516297	17615.705	0.51561652	19.443053
15.9	576.59484	-1163.4747	64.320022	17488.692	0.49018285	19.630849
16.0	563.26666	-1162.6714	62.833243	17067.023	0.48062122	19.65944
16.1	570.09202	-1164.9551	63.594623	17263.111	0.47904289	19.755876
16.2	546.50406	-1164.0274	60.963351	17503.779	0.46288635	19.959073
16.3	547.78559	-1164.9726	61.106307	16882.712	0.43120371	20.18667
16.4	541.74235	-1164.6684	60.432174	16839.674	0.42740602	20.381386
16.5	553.85969	-1165.8622	61.783882	17102.267	0.44064945	20.617527
16.6	560.21852	-1166.6101	62.49322	16962.369	0.44077038	20.808692
16.7	524.99774	-1162.9901	58.564288	16966.776	0.43872581	20.895656
16.8	551.06878	-1164.7442	61.472552	16858.115	0.42661641	20.92865
16.9	581.43628	-1165.1889	64.860092	17148.386	0.41449182	20.98454
17.0	583.37087	-1163.9282	65.075898	17568.537	0.42316845	21.033751
17.1	567.5946	-1162.8265	63.316032	17477.577	0.43685257	21.221829
17.2	554.07715	-1162.6669	61.80814	17054.544	0.42925683	21.451605
17.3	562.55095	-1164.746	62.753405	16954.339	0.40881448	21.684163
17.4	541.4212	-1163.5576	60.396349	16636.2	0.40622526	21.991152
17.5	545.00827	-1164.4289	60.796493	16704.671	0.41840873	22.345925
17.6	546.35621	-1164.4933	60.946858	17251.013	0.42592409	22.654453
17.7	558.88016	-1165.6695	62.343923	17313.867	0.42746289	22.839948
17.8	549.03862	-1164.7743	61.246085	17235.709	0.43890155	22.87502
17.9	547.57743	-1164.5143	61.083086	16903.978	0.44145347	22.904813
18.0	545.42836	-1163.5349	60.843354	17030.773	0.4471576	22.941201
18.1	547.33527	-1162.0299	61.056073	17785.23	0.46099213	22.944035
18.2	580.46047	-1162.5383	64.751239	17568.8	0.46909389	23.031934
18.3	592.71906	-1162.7798	66.118704	17532.738	0.46683685	23.2038
18.4	559.99814	-1160.1054	62.468636	17214.438	0.48489923	23.309833
18.5	545.19461	-1159.552	60.817279	17681.495	0.50324367	23.40492
18.6	577.2065	-1163.9712	64.388254	17545.894	0.49242889	23.464295
18.7	552.92048	-1162.7387	61.679112	17616.567	0.48804931	23.536282
18.8	549.83672	-1163.4357	61.335114	17192.292	0.4854269	23.677818
18.9	558.71387	-1165.0814	62.325373	17577.271	0.47689239	23.810662
19.0	555.67594	-1165.7447	61.986487	17266.505	0.47604472	23.872499
19.1	535.20181	-1164.5817	59.702568	17202.146	0.48749643	23.939845
19.2	532.61372	-1164.514	59.413862	16988.933	0.48357495	24.099688
19.3	549.59036	-1165.9672	61.307632	16763.54	0.46997991	24.244742
19.4	541.70116	-1164.6226	60.427579	17047.353	0.4555143	24.463684
19.5	531.76068	-1162.921	59.318705	17429.376	0.45987313	24.800176
19.6	563.73539	-1165.8596	62.885531	16829.278	0.44573861	25.2479
19.7	544.61424	-1163.5678	60.752538	18249.581	0.42244775	25.521898
19.8	544.17724	-1163.2027	60.70379	17694.91	0.40498567	25.671613
19.9	569.38018	-1165.75	63.515216	16930.384	0.40939435	25.795772
20.0	552.40184	-1164.4459	61.621256	16797.429	0.41416186	25.973517
20.1	559.63058	-1166.0225	62.427634	16512.941	0.40743765	26.319455
20.2	551.38805	-1165.5554	61.508167	16876.763	0.4127827	26.657811
20.3	550.05101	-1165.5456	61.359018	17311.76	0.41146628	26.936128
20.4	541.60147	-1164.7101	60.416459	16763.975	0.40914448	27.023097
20.5	548.13278	-1165.0083	61.145037	16679.675	0.41105321	27.027447
20.6	555.78088	-1164.2357	61.998193	17424.279	0.43468974	27.207868
20.7	581.92484	-1164.9243	64.914592	16980.958	0.44091339	27.556768
20.8	546.42845	-1160.155	60.954916	18206.662	0.44456264	27.816308
20.9	567.14571	-1162.0191	63.265957	17670.612	0.44268332	28.056797
21.0	561.6224	-1161.8352	62.649824	16837.725	0.43831889	28.257107
21.1	557.94922	-1163.1517	62.240076	16793.799	0.43031546	28.399039
21.2	540.77701	-1163.2895	60.324489	17407.215	0.41693664	28.390021
21.3	553.17748	-1165.8683	61.707781	17038.266	0.40662596	28.32793
21.4	547.39604	-1165.7812	61.062852	16534.172	0.4108145	28.224362
21.5	530.89884	-1163.8452	59.222565	16959.965	0.41402952	28.247483
21.6	546.63192	-1164.9015	60.977613	16901.432	0.41641722	28.326673
21.7	536.89297	-1163.1128	59.891219	17030.505	0.43189828	28.485349
21.8	548.58777	-1163.3422	61.195792	17077.283	0.42850359	28.689317
21.9	553.36976	-1163.0986	61.72923	17411.589	0.42017467	28.953685
22.0	563.34292	-1164.1999	62.841751	16965.637	0.42342929	29.261374
22.1	553.18233	-1163.5111	61.708321	16385.993	0.41303024	29.506848
22.2	535.54897	-1161.8609	59.741294	16839.14	0.42214567	29.653482
22.3	556.50534	-1163.9615	62.079008	16831.939	0.42718847	29.870881
22.4	566.03735	-1165.2238	63.142318	16409.953	0.42995026	30.240014
22.5	532.99454	-1162.5465	59.456343	17316.742	0.44874013	30.704417
22.6	525.28136	-1162.3729	58.595926	16966.942	0.45464372	31.004288
22.7	547.69601	-1164.919	61.096314	16379.312	0.45136452	31.047644
22.8	553.07072	-1164.865	61.695872	16851.728	0.43460892	31.064992
22.9	541.59869	-1162.1955	60.416149	16815.651	0.43314624	31.120305
23.0	553.76731	-1161.8751	61.773576	16506.862	0.42804125	31.334153
23.1	556.56077	-1160.9928	62.085191	17121.69	0.42339846	31.576793
23.2	580.1704	-1162.9502	64.718881	17162.874	0.42347896	31.682625
23.3	570.03653	-1162.234	63.588433	17315.73	0.42645096	31.778628
23.4	581.47264	-1165.4023	64.864148	16990.036	0.42034983	31.972747
23.5	548.96346	-1164.4018	61.2377	17359.905	0.42683008	32.216591
23.6	524.73586	-1162.7835	58.535075	16947.347	0.43040462	32.404202
23.7	546.96752	-1165.1908	61.015051	17031.302	0.41574308	32.533068
23.8	557.79505	-1166.1017	62.222877	17173.887	0.41494826	32.670858
23.9	567.08159	-1167.0257	63.258805	16538.826	0.42303274	32.886606
24.0	566.09275	-1167.3712	63.148498	16542.047	0.43618505	33.151624
24.1	521.61006	-1163.7526	58.186388	16392.858	0.44731071	33.475546
24.2	514.75016	-1163.4208	57.421155	16520.37	0.44361506	33.711273
24.3	548.52383	-1165.4235	61.188659	16243.472	0.44558543	33.737974
24.4	545.01202	-1162.6445	60.796911	17166.519	0.44163994	33.730446
24.5	556.36261	-1162.7414	62.063086	16258.568	0.43347175	33.808313
24.6	586.6473	-1165.7296	65.441389	16766.082	0.41994277	33.937879
24.7	556.21413	-1163.1546	62.046524	17097.092	0.39882332	34.016969
24.8	563.98109	-1165.5558	62.91294	16538.846	0.38796829	34.060316
24.9	550.47756	-1165.3702	61.406601	17024.964	0.4154961	34.208707
25.0	543.89844	-1165.2831	60.672689	17482.814	0.42941562	34.451343
