# E (eV) pdos(E) 
-11.793  0.000E+00
-11.783  0.272E-02
-11.773  0.109E-01
-11.763  0.247E-01
-11.753  0.442E-01
-11.743  0.389E-01
-11.733  0.428E-01
-11.723  0.476E-01
-11.713  0.526E-01
-11.703  0.579E-01
-11.693  0.633E-01
-11.683  0.690E-01
-11.673  0.736E-01
-11.663  0.769E-01
-11.653  0.791E-01
-11.643  0.808E-01
-11.633  0.839E-01
-11.623  0.872E-01
-11.613  0.908E-01
-11.603  0.942E-01
-11.593  0.978E-01
-11.583  0.101E+00
-11.573  0.105E+00
-11.563  0.109E+00
-11.553  0.112E+00
-11.543  0.115E+00
-11.533  0.117E+00
-11.523  0.120E+00
-11.513  0.123E+00
-11.503  0.125E+00
-11.493  0.128E+00
-11.483  0.131E+00
-11.473  0.133E+00
-11.463  0.136E+00
-11.453  0.139E+00
-11.443  0.142E+00
-11.433  0.145E+00
-11.423  0.147E+00
-11.413  0.150E+00
-11.403  0.153E+00
-11.393  0.156E+00
-11.383  0.159E+00
-11.373  0.162E+00
-11.363  0.164E+00
-11.353  0.167E+00
-11.343  0.169E+00
-11.333  0.172E+00
-11.323  0.175E+00
-11.313  0.178E+00
-11.303  0.180E+00
-11.293  0.183E+00
-11.283  0.186E+00
-11.273  0.189E+00
-11.263  0.190E+00
-11.253  0.193E+00
-11.243  0.196E+00
-11.233  0.198E+00
-11.223  0.201E+00
-11.213  0.204E+00
-11.203  0.206E+00
-11.193  0.208E+00
-11.183  0.212E+00
-11.173  0.215E+00
-11.163  0.218E+00
-11.153  0.221E+00
-11.143  0.224E+00
-11.133  0.227E+00
-11.123  0.230E+00
-11.113  0.233E+00
-11.103  0.236E+00
-11.093  0.238E+00
-11.083  0.240E+00
-11.073  0.243E+00
-11.063  0.246E+00
-11.053  0.249E+00
-11.043  0.252E+00
-11.033  0.255E+00
-11.023  0.257E+00
-11.013  0.259E+00
-11.003  0.262E+00
-10.993  0.265E+00
-10.983  0.269E+00
-10.973  0.273E+00
-10.963  0.277E+00
-10.953  0.280E+00
-10.943  0.284E+00
-10.933  0.288E+00
-10.923  0.292E+00
-10.913  0.295E+00
-10.903  0.299E+00
-10.893  0.302E+00
-10.883  0.306E+00
-10.873  0.309E+00
-10.863  0.312E+00
-10.853  0.316E+00
-10.843  0.319E+00
-10.833  0.323E+00
-10.823  0.326E+00
-10.813  0.329E+00
-10.803  0.332E+00
-10.793  0.337E+00
-10.783  0.343E+00
-10.773  0.349E+00
-10.763  0.355E+00
-10.753  0.361E+00
-10.743  0.368E+00
-10.733  0.374E+00
-10.723  0.380E+00
-10.713  0.386E+00
-10.703  0.392E+00
-10.693  0.399E+00
-10.683  0.405E+00
-10.673  0.412E+00
-10.663  0.419E+00
-10.653  0.426E+00
-10.643  0.432E+00
-10.633  0.440E+00
-10.623  0.451E+00
-10.613  0.468E+00
-10.603  0.485E+00
-10.593  0.506E+00
-10.583  0.530E+00
-10.573  0.558E+00
-10.563  0.644E+00
-10.553  0.636E+00
-10.543  0.625E+00
-10.533  0.618E+00
-10.523  0.602E+00
-10.513  0.574E+00
-10.503  0.575E+00
-10.493  0.575E+00
-10.483  0.577E+00
-10.473  0.564E+00
-10.463  0.555E+00
-10.453  0.545E+00
-10.443  0.535E+00
-10.433  0.523E+00
-10.423  0.509E+00
-10.413  0.494E+00
-10.403  0.484E+00
-10.393  0.477E+00
-10.383  0.474E+00
-10.373  0.467E+00
-10.363  0.458E+00
-10.353  0.448E+00
-10.343  0.438E+00
-10.333  0.432E+00
-10.323  0.436E+00
-10.313  0.455E+00
-10.303  0.483E+00
-10.293  0.317E+00
-10.283  0.196E+00
-10.273  0.115E+00
-10.263  0.125E-02
-10.253  0.000E+00
-10.243  0.000E+00
-10.233  0.000E+00
-10.223  0.000E+00
-10.213  0.000E+00
-10.203  0.000E+00
-10.193  0.000E+00
-10.183  0.000E+00
-10.173  0.000E+00
-10.163  0.000E+00
-10.153  0.000E+00
-10.143  0.000E+00
-10.133  0.000E+00
-10.123  0.000E+00
-10.113  0.000E+00
-10.103  0.000E+00
-10.093  0.000E+00
-10.083  0.000E+00
-10.073  0.000E+00
-10.063  0.000E+00
-10.053  0.000E+00
-10.043  0.000E+00
-10.033  0.000E+00
-10.023  0.000E+00
-10.013  0.000E+00
-10.003  0.000E+00
 -9.993  0.000E+00
 -9.983  0.000E+00
 -9.973  0.000E+00
 -9.963  0.000E+00
 -9.953  0.000E+00
 -9.943  0.000E+00
 -9.933  0.000E+00
 -9.923  0.000E+00
 -9.913  0.000E+00
 -9.903  0.000E+00
 -9.893  0.000E+00
 -9.883  0.000E+00
 -9.873  0.000E+00
 -9.863  0.000E+00
 -9.853  0.000E+00
 -9.843  0.000E+00
 -9.833  0.000E+00
 -9.823  0.000E+00
 -9.813  0.000E+00
 -9.803  0.000E+00
 -9.793  0.000E+00
 -9.783  0.000E+00
 -9.773  0.000E+00
 -9.763  0.000E+00
 -9.753  0.000E+00
 -9.743  0.000E+00
 -9.733  0.000E+00
 -9.723  0.000E+00
 -9.713  0.000E+00
 -9.703  0.000E+00
 -9.693  0.000E+00
 -9.683  0.000E+00
 -9.673  0.000E+00
 -9.663  0.000E+00
 -9.653  0.000E+00
 -9.643  0.000E+00
 -9.633  0.000E+00
 -9.623  0.000E+00
 -9.613  0.000E+00
 -9.603  0.000E+00
 -9.593  0.000E+00
 -9.583  0.000E+00
 -9.573  0.000E+00
 -9.563  0.000E+00
 -9.553  0.000E+00
 -9.543  0.000E+00
 -9.533  0.000E+00
 -9.523  0.000E+00
 -9.513  0.000E+00
 -9.503  0.000E+00
 -9.493  0.000E+00
 -9.483  0.000E+00
 -9.473  0.000E+00
 -9.463  0.000E+00
 -9.453  0.000E+00
 -9.443  0.000E+00
 -9.433  0.000E+00
 -9.423  0.000E+00
 -9.413  0.000E+00
 -9.403  0.000E+00
 -9.393  0.000E+00
 -9.383  0.000E+00
 -9.373  0.000E+00
 -9.363  0.000E+00
 -9.353  0.000E+00
 -9.343  0.000E+00
 -9.333  0.000E+00
 -9.323  0.000E+00
 -9.313  0.000E+00
 -9.303  0.000E+00
 -9.293  0.000E+00
 -9.283  0.000E+00
 -9.273  0.000E+00
 -9.263  0.000E+00
 -9.253  0.000E+00
 -9.243  0.000E+00
 -9.233  0.000E+00
 -9.223  0.000E+00
 -9.213  0.000E+00
 -9.203  0.000E+00
 -9.193  0.000E+00
 -9.183  0.000E+00
 -9.173  0.000E+00
 -9.163  0.000E+00
 -9.153  0.000E+00
 -9.143  0.000E+00
 -9.133  0.000E+00
 -9.123  0.000E+00
 -9.113  0.000E+00
 -9.103  0.000E+00
 -9.093  0.000E+00
 -9.083  0.000E+00
 -9.073  0.000E+00
 -9.063  0.000E+00
 -9.053  0.000E+00
 -9.043  0.000E+00
 -9.033  0.000E+00
 -9.023  0.000E+00
 -9.013  0.000E+00
 -9.003  0.000E+00
 -8.993  0.000E+00
 -8.983  0.000E+00
 -8.973  0.000E+00
 -8.963  0.000E+00
 -8.953  0.000E+00
 -8.943  0.000E+00
 -8.933  0.000E+00
 -8.923  0.000E+00
 -8.913  0.000E+00
 -8.903  0.000E+00
 -8.893  0.000E+00
 -8.883  0.000E+00
 -8.873  0.000E+00
 -8.863  0.000E+00
 -8.853  0.000E+00
 -8.843  0.000E+00
 -8.833  0.000E+00
 -8.823  0.000E+00
 -8.813  0.000E+00
 -8.803  0.000E+00
 -8.793  0.000E+00
 -8.783  0.000E+00
 -8.773  0.000E+00
 -8.763  0.000E+00
 -8.753  0.000E+00
 -8.743  0.000E+00
 -8.733  0.000E+00
 -8.723  0.000E+00
 -8.713  0.000E+00
 -8.703  0.000E+00
 -8.693  0.000E+00
 -8.683  0.000E+00
 -8.673  0.000E+00
 -8.663  0.000E+00
 -8.653  0.000E+00
 -8.643  0.000E+00
 -8.633  0.000E+00
 -8.623  0.000E+00
 -8.613  0.000E+00
 -8.603  0.000E+00
 -8.593  0.000E+00
 -8.583  0.000E+00
 -8.573  0.000E+00
 -8.563  0.000E+00
 -8.553  0.000E+00
 -8.543  0.000E+00
 -8.533  0.000E+00
 -8.523  0.000E+00
 -8.513  0.000E+00
 -8.503  0.000E+00
 -8.493  0.000E+00
 -8.483  0.000E+00
 -8.473  0.000E+00
 -8.463  0.000E+00
 -8.453  0.000E+00
 -8.443  0.000E+00
 -8.433  0.000E+00
 -8.423  0.000E+00
 -8.413  0.000E+00
 -8.403  0.000E+00
 -8.393  0.000E+00
 -8.383  0.000E+00
 -8.373  0.000E+00
 -8.363  0.000E+00
 -8.353  0.000E+00
 -8.343  0.000E+00
 -8.333  0.000E+00
 -8.323  0.000E+00
 -8.313  0.000E+00
 -8.303  0.000E+00
 -8.293  0.000E+00
 -8.283  0.000E+00
 -8.273  0.000E+00
 -8.263  0.000E+00
 -8.253  0.000E+00
 -8.243  0.000E+00
 -8.233  0.000E+00
 -8.223  0.000E+00
 -8.213  0.000E+00
 -8.203  0.000E+00
 -8.193  0.000E+00
 -8.183  0.000E+00
 -8.173  0.000E+00
 -8.163  0.000E+00
 -8.153  0.000E+00
 -8.143  0.000E+00
 -8.133  0.000E+00
 -8.123  0.000E+00
 -8.113  0.000E+00
 -8.103  0.000E+00
 -8.093  0.000E+00
 -8.083  0.000E+00
 -8.073  0.000E+00
 -8.063  0.000E+00
 -8.053  0.000E+00
 -8.043  0.000E+00
 -8.033  0.000E+00
 -8.023  0.000E+00
 -8.013  0.000E+00
 -8.003  0.000E+00
 -7.993  0.000E+00
 -7.983  0.000E+00
 -7.973  0.000E+00
 -7.963  0.000E+00
 -7.953  0.000E+00
 -7.943  0.000E+00
 -7.933  0.000E+00
 -7.923  0.000E+00
 -7.913  0.000E+00
 -7.903  0.000E+00
 -7.893  0.000E+00
 -7.883  0.000E+00
 -7.873  0.000E+00
 -7.863  0.000E+00
 -7.853  0.000E+00
 -7.843  0.000E+00
 -7.833  0.000E+00
 -7.823  0.000E+00
 -7.813  0.000E+00
 -7.803  0.000E+00
 -7.793  0.000E+00
 -7.783  0.000E+00
 -7.773  0.000E+00
 -7.763  0.000E+00
 -7.753  0.000E+00
 -7.743  0.000E+00
 -7.733  0.000E+00
 -7.723  0.000E+00
 -7.713  0.000E+00
 -7.703  0.000E+00
 -7.693  0.000E+00
 -7.683  0.000E+00
 -7.673  0.000E+00
 -7.663  0.000E+00
 -7.653  0.000E+00
 -7.643  0.000E+00
 -7.633  0.000E+00
 -7.623  0.000E+00
 -7.613  0.000E+00
 -7.603  0.000E+00
 -7.593  0.000E+00
 -7.583  0.000E+00
 -7.573  0.000E+00
 -7.563  0.000E+00
 -7.553  0.000E+00
 -7.543  0.000E+00
 -7.533  0.000E+00
 -7.523  0.000E+00
 -7.513  0.000E+00
 -7.503  0.000E+00
 -7.493  0.000E+00
 -7.483  0.000E+00
 -7.473  0.000E+00
 -7.463  0.000E+00
 -7.453  0.000E+00
 -7.443  0.000E+00
 -7.433  0.000E+00
 -7.423  0.000E+00
 -7.413  0.000E+00
 -7.403  0.000E+00
 -7.393  0.000E+00
 -7.383  0.000E+00
 -7.373  0.000E+00
 -7.363  0.000E+00
 -7.353  0.000E+00
 -7.343  0.000E+00
 -7.333  0.000E+00
 -7.323  0.000E+00
 -7.313  0.000E+00
 -7.303  0.000E+00
 -7.293  0.000E+00
 -7.283  0.000E+00
 -7.273  0.000E+00
 -7.263  0.000E+00
 -7.253  0.000E+00
 -7.243  0.000E+00
 -7.233  0.000E+00
 -7.223  0.000E+00
 -7.213  0.000E+00
 -7.203  0.000E+00
 -7.193  0.000E+00
 -7.183  0.000E+00
 -7.173  0.000E+00
 -7.163  0.000E+00
 -7.153  0.000E+00
 -7.143  0.000E+00
 -7.133  0.000E+00
 -7.123  0.000E+00
 -7.113  0.000E+00
 -7.103  0.000E+00
 -7.093  0.000E+00
 -7.083  0.000E+00
 -7.073  0.000E+00
 -7.063  0.000E+00
 -7.053  0.000E+00
 -7.043  0.000E+00
 -7.033  0.000E+00
 -7.023  0.000E+00
 -7.013  0.000E+00
 -7.003  0.000E+00
 -6.993  0.000E+00
 -6.983  0.000E+00
 -6.973  0.000E+00
 -6.963  0.000E+00
 -6.953  0.000E+00
 -6.943  0.000E+00
 -6.933  0.000E+00
 -6.923  0.000E+00
 -6.913  0.000E+00
 -6.903  0.000E+00
 -6.893  0.000E+00
 -6.883  0.000E+00
 -6.873  0.000E+00
 -6.863  0.000E+00
 -6.853  0.000E+00
 -6.843  0.000E+00
 -6.833  0.000E+00
 -6.823  0.000E+00
 -6.813  0.000E+00
 -6.803  0.000E+00
 -6.793  0.000E+00
 -6.783  0.000E+00
 -6.773  0.000E+00
 -6.763  0.000E+00
 -6.753  0.000E+00
 -6.743  0.000E+00
 -6.733  0.000E+00
 -6.723  0.000E+00
 -6.713  0.000E+00
 -6.703  0.000E+00
 -6.693  0.000E+00
 -6.683  0.000E+00
 -6.673  0.000E+00
 -6.663  0.000E+00
 -6.653  0.000E+00
 -6.643  0.000E+00
 -6.633  0.000E+00
 -6.623  0.000E+00
 -6.613  0.000E+00
 -6.603  0.000E+00
 -6.593  0.000E+00
 -6.583  0.000E+00
 -6.573  0.000E+00
 -6.563  0.000E+00
 -6.553  0.000E+00
 -6.543  0.000E+00
 -6.533  0.000E+00
 -6.523  0.000E+00
 -6.513  0.000E+00
 -6.503  0.000E+00
 -6.493  0.000E+00
 -6.483  0.000E+00
 -6.473  0.000E+00
 -6.463  0.000E+00
 -6.453  0.000E+00
 -6.443  0.000E+00
 -6.433  0.000E+00
 -6.423  0.000E+00
 -6.413  0.000E+00
 -6.403  0.000E+00
 -6.393  0.000E+00
 -6.383  0.000E+00
 -6.373  0.000E+00
 -6.363  0.000E+00
 -6.353  0.000E+00
 -6.343  0.000E+00
 -6.333  0.000E+00
 -6.323  0.000E+00
 -6.313  0.000E+00
 -6.303  0.000E+00
 -6.293  0.000E+00
 -6.283  0.000E+00
 -6.273  0.000E+00
 -6.263  0.000E+00
 -6.253  0.000E+00
 -6.243  0.000E+00
 -6.233  0.000E+00
 -6.223  0.000E+00
 -6.213  0.000E+00
 -6.203  0.000E+00
 -6.193  0.000E+00
 -6.183  0.000E+00
 -6.173  0.000E+00
 -6.163  0.000E+00
 -6.153  0.000E+00
 -6.143  0.000E+00
 -6.133  0.000E+00
 -6.123  0.000E+00
 -6.113  0.000E+00
 -6.103  0.000E+00
 -6.093  0.000E+00
 -6.083  0.000E+00
 -6.073  0.000E+00
 -6.063  0.000E+00
 -6.053  0.000E+00
 -6.043  0.000E+00
 -6.033  0.000E+00
 -6.023  0.000E+00
 -6.013  0.000E+00
 -6.003  0.000E+00
 -5.993  0.000E+00
 -5.983  0.000E+00
 -5.973  0.000E+00
 -5.963  0.000E+00
 -5.953  0.000E+00
 -5.943  0.000E+00
 -5.933  0.000E+00
 -5.923  0.000E+00
 -5.913  0.000E+00
 -5.903  0.000E+00
 -5.893  0.000E+00
 -5.883  0.000E+00
 -5.873  0.000E+00
 -5.863  0.000E+00
 -5.853  0.000E+00
 -5.843  0.000E+00
 -5.833  0.000E+00
 -5.823  0.000E+00
 -5.813  0.000E+00
 -5.803  0.000E+00
 -5.793  0.000E+00
 -5.783  0.000E+00
 -5.773  0.000E+00
 -5.763  0.000E+00
 -5.753  0.000E+00
 -5.743  0.000E+00
 -5.733  0.000E+00
 -5.723  0.000E+00
 -5.713  0.000E+00
 -5.703  0.000E+00
 -5.693  0.000E+00
 -5.683  0.000E+00
 -5.673  0.000E+00
 -5.663  0.000E+00
 -5.653  0.000E+00
 -5.643  0.000E+00
 -5.633  0.000E+00
 -5.623  0.000E+00
 -5.613  0.000E+00
 -5.603  0.000E+00
 -5.593  0.000E+00
 -5.583  0.000E+00
 -5.573  0.000E+00
 -5.563  0.000E+00
 -5.553  0.000E+00
 -5.543  0.000E+00
 -5.533  0.000E+00
 -5.523  0.000E+00
 -5.513  0.000E+00
 -5.503  0.000E+00
 -5.493  0.000E+00
 -5.483  0.000E+00
 -5.473  0.000E+00
 -5.463  0.000E+00
 -5.453  0.000E+00
 -5.443  0.000E+00
 -5.433  0.000E+00
 -5.423  0.000E+00
 -5.413  0.000E+00
 -5.403  0.000E+00
 -5.393  0.000E+00
 -5.383  0.000E+00
 -5.373  0.000E+00
 -5.363  0.000E+00
 -5.353  0.000E+00
 -5.343  0.000E+00
 -5.333  0.000E+00
 -5.323  0.000E+00
 -5.313  0.000E+00
 -5.303  0.000E+00
 -5.293  0.000E+00
 -5.283  0.000E+00
 -5.273  0.000E+00
 -5.263  0.000E+00
 -5.253  0.000E+00
 -5.243  0.000E+00
 -5.233  0.000E+00
 -5.223  0.000E+00
 -5.213  0.000E+00
 -5.203  0.000E+00
 -5.193  0.000E+00
 -5.183  0.000E+00
 -5.173  0.000E+00
 -5.163  0.000E+00
 -5.153  0.000E+00
 -5.143  0.000E+00
 -5.133  0.000E+00
 -5.123  0.000E+00
 -5.113  0.000E+00
 -5.103  0.000E+00
 -5.093  0.000E+00
 -5.083  0.000E+00
 -5.073  0.000E+00
 -5.063  0.000E+00
 -5.053  0.000E+00
 -5.043  0.000E+00
 -5.033  0.000E+00
 -5.023  0.000E+00
 -5.013  0.000E+00
 -5.003  0.000E+00
 -4.993  0.000E+00
 -4.983  0.000E+00
 -4.973  0.000E+00
 -4.963  0.000E+00
 -4.953  0.000E+00
 -4.943  0.000E+00
 -4.933  0.000E+00
 -4.923  0.000E+00
 -4.913  0.000E+00
 -4.903  0.000E+00
 -4.893  0.000E+00
 -4.883  0.000E+00
 -4.873  0.000E+00
 -4.863  0.000E+00
 -4.853  0.000E+00
 -4.843  0.000E+00
 -4.833  0.000E+00
 -4.823  0.000E+00
 -4.813  0.000E+00
 -4.803  0.000E+00
 -4.793  0.000E+00
 -4.783  0.000E+00
 -4.773  0.000E+00
 -4.763  0.000E+00
 -4.753  0.000E+00
 -4.743  0.000E+00
 -4.733  0.000E+00
 -4.723  0.000E+00
 -4.713  0.000E+00
 -4.703  0.000E+00
 -4.693  0.000E+00
 -4.683  0.000E+00
 -4.673  0.000E+00
 -4.663  0.000E+00
 -4.653  0.000E+00
 -4.643  0.000E+00
 -4.633  0.000E+00
 -4.623  0.000E+00
 -4.613  0.000E+00
 -4.603  0.000E+00
 -4.593  0.000E+00
 -4.583  0.000E+00
 -4.573  0.000E+00
 -4.563  0.000E+00
 -4.553  0.000E+00
 -4.543  0.000E+00
 -4.533  0.000E+00
 -4.523  0.000E+00
 -4.513  0.000E+00
 -4.503  0.000E+00
 -4.493  0.000E+00
 -4.483  0.000E+00
 -4.473  0.000E+00
 -4.463  0.000E+00
 -4.453  0.000E+00
 -4.443  0.000E+00
 -4.433  0.000E+00
 -4.423  0.000E+00
 -4.413  0.000E+00
 -4.403  0.000E+00
 -4.393  0.000E+00
 -4.383  0.000E+00
 -4.373  0.000E+00
 -4.363  0.000E+00
 -4.353  0.000E+00
 -4.343  0.000E+00
 -4.333  0.000E+00
 -4.323  0.000E+00
 -4.313  0.000E+00
 -4.303  0.000E+00
 -4.293  0.000E+00
 -4.283  0.000E+00
 -4.273  0.000E+00
 -4.263  0.000E+00
 -4.253  0.000E+00
 -4.243  0.000E+00
 -4.233  0.000E+00
 -4.223  0.000E+00
 -4.213  0.000E+00
 -4.203  0.000E+00
 -4.193  0.000E+00
 -4.183  0.000E+00
 -4.173  0.000E+00
 -4.163  0.000E+00
 -4.153  0.000E+00
 -4.143  0.000E+00
 -4.133  0.000E+00
 -4.123  0.000E+00
 -4.113  0.000E+00
 -4.103  0.000E+00
 -4.093  0.000E+00
 -4.083  0.000E+00
 -4.073  0.000E+00
 -4.063  0.000E+00
 -4.053  0.000E+00
 -4.043  0.000E+00
 -4.033  0.000E+00
 -4.023  0.000E+00
 -4.013  0.000E+00
 -4.003  0.000E+00
 -3.993  0.000E+00
 -3.983  0.000E+00
 -3.973  0.000E+00
 -3.963  0.000E+00
 -3.953  0.000E+00
 -3.943  0.000E+00
 -3.933  0.000E+00
 -3.923  0.000E+00
 -3.913  0.000E+00
 -3.903  0.000E+00
 -3.893  0.000E+00
 -3.883  0.000E+00
 -3.873  0.000E+00
 -3.863  0.000E+00
 -3.853  0.000E+00
 -3.843  0.000E+00
 -3.833  0.000E+00
 -3.823  0.000E+00
 -3.813  0.000E+00
 -3.803  0.000E+00
 -3.793  0.000E+00
 -3.783  0.000E+00
 -3.773  0.000E+00
 -3.763  0.000E+00
 -3.753  0.000E+00
 -3.743  0.000E+00
 -3.733  0.000E+00
 -3.723  0.000E+00
 -3.713  0.000E+00
 -3.703  0.000E+00
 -3.693  0.000E+00
 -3.683  0.000E+00
 -3.673  0.000E+00
 -3.663  0.000E+00
 -3.653  0.000E+00
 -3.643  0.000E+00
 -3.633  0.000E+00
 -3.623  0.000E+00
 -3.613  0.000E+00
 -3.603  0.000E+00
 -3.593  0.000E+00
 -3.583  0.000E+00
 -3.573  0.000E+00
 -3.563  0.000E+00
 -3.553  0.000E+00
 -3.543  0.000E+00
 -3.533  0.000E+00
 -3.523  0.000E+00
 -3.513  0.000E+00
 -3.503  0.000E+00
 -3.493  0.000E+00
 -3.483  0.000E+00
 -3.473  0.000E+00
 -3.463  0.000E+00
 -3.453  0.000E+00
 -3.443  0.000E+00
 -3.433  0.000E+00
 -3.423  0.000E+00
 -3.413  0.000E+00
 -3.403  0.000E+00
 -3.393  0.000E+00
 -3.383  0.000E+00
 -3.373  0.000E+00
 -3.363  0.000E+00
 -3.353  0.000E+00
 -3.343  0.000E+00
 -3.333  0.000E+00
 -3.323  0.000E+00
 -3.313  0.000E+00
 -3.303  0.000E+00
 -3.293  0.000E+00
 -3.283  0.000E+00
 -3.273  0.000E+00
 -3.263  0.000E+00
 -3.253  0.000E+00
 -3.243  0.000E+00
 -3.233  0.000E+00
 -3.223  0.000E+00
 -3.213  0.000E+00
 -3.203  0.000E+00
 -3.193  0.000E+00
 -3.183  0.000E+00
 -3.173  0.000E+00
 -3.163  0.000E+00
 -3.153  0.000E+00
 -3.143  0.000E+00
 -3.133  0.000E+00
 -3.123  0.000E+00
 -3.113  0.000E+00
 -3.103  0.000E+00
 -3.093  0.000E+00
 -3.083  0.000E+00
 -3.073  0.000E+00
 -3.063  0.000E+00
 -3.053  0.000E+00
 -3.043  0.000E+00
 -3.033  0.000E+00
 -3.023  0.000E+00
 -3.013  0.000E+00
 -3.003  0.000E+00
 -2.993  0.000E+00
 -2.983  0.000E+00
 -2.973  0.000E+00
 -2.963  0.000E+00
 -2.953  0.000E+00
 -2.943  0.000E+00
 -2.933  0.000E+00
 -2.923  0.000E+00
 -2.913  0.000E+00
 -2.903  0.000E+00
 -2.893  0.000E+00
 -2.883  0.000E+00
 -2.873  0.000E+00
 -2.863  0.000E+00
 -2.853  0.000E+00
 -2.843  0.000E+00
 -2.833  0.000E+00
 -2.823  0.000E+00
 -2.813  0.000E+00
 -2.803  0.000E+00
 -2.793  0.000E+00
 -2.783  0.000E+00
 -2.773  0.000E+00
 -2.763  0.000E+00
 -2.753  0.000E+00
 -2.743  0.000E+00
 -2.733  0.000E+00
 -2.723  0.000E+00
 -2.713  0.000E+00
 -2.703  0.000E+00
 -2.693  0.000E+00
 -2.683  0.000E+00
 -2.673  0.000E+00
 -2.663  0.000E+00
 -2.653  0.000E+00
 -2.643  0.000E+00
 -2.633  0.000E+00
 -2.623  0.000E+00
 -2.613  0.000E+00
 -2.603  0.000E+00
 -2.593  0.000E+00
 -2.583  0.000E+00
 -2.573  0.000E+00
 -2.563  0.000E+00
 -2.553  0.000E+00
 -2.543  0.000E+00
 -2.533  0.000E+00
 -2.523  0.000E+00
 -2.513  0.000E+00
 -2.503  0.000E+00
 -2.493  0.000E+00
 -2.483  0.000E+00
 -2.473  0.000E+00
 -2.463  0.000E+00
 -2.453  0.000E+00
 -2.443  0.000E+00
 -2.433  0.000E+00
 -2.423  0.000E+00
 -2.413  0.000E+00
 -2.403  0.000E+00
 -2.393  0.000E+00
 -2.383  0.000E+00
 -2.373  0.000E+00
 -2.363  0.000E+00
 -2.353  0.000E+00
 -2.343  0.000E+00
 -2.333  0.000E+00
 -2.323  0.000E+00
 -2.313  0.000E+00
 -2.303  0.000E+00
 -2.293  0.000E+00
 -2.283  0.000E+00
 -2.273  0.000E+00
 -2.263  0.000E+00
 -2.253  0.000E+00
 -2.243  0.000E+00
 -2.233  0.000E+00
 -2.223  0.000E+00
 -2.213  0.000E+00
 -2.203  0.000E+00
 -2.193  0.000E+00
 -2.183  0.000E+00
 -2.173  0.000E+00
 -2.163  0.000E+00
 -2.153  0.000E+00
 -2.143  0.000E+00
 -2.133  0.000E+00
 -2.123  0.000E+00
 -2.113  0.000E+00
 -2.103  0.000E+00
 -2.093  0.000E+00
 -2.083  0.000E+00
 -2.073  0.000E+00
 -2.063  0.000E+00
 -2.053  0.000E+00
 -2.043  0.000E+00
 -2.033  0.000E+00
 -2.023  0.000E+00
 -2.013  0.000E+00
 -2.003  0.000E+00
 -1.993  0.000E+00
 -1.983  0.000E+00
 -1.973  0.000E+00
 -1.963  0.000E+00
 -1.953  0.000E+00
 -1.943  0.000E+00
 -1.933  0.000E+00
 -1.923  0.000E+00
 -1.913  0.000E+00
 -1.903  0.000E+00
 -1.893  0.000E+00
 -1.883  0.000E+00
 -1.873  0.000E+00
 -1.863  0.000E+00
 -1.853  0.000E+00
 -1.843  0.000E+00
 -1.833  0.000E+00
 -1.823  0.000E+00
 -1.813  0.000E+00
 -1.803  0.000E+00
 -1.793  0.000E+00
 -1.783  0.000E+00
 -1.773  0.000E+00
 -1.763  0.000E+00
 -1.753  0.000E+00
 -1.743  0.000E+00
 -1.733  0.000E+00
 -1.723  0.000E+00
 -1.713  0.000E+00
 -1.703  0.000E+00
 -1.693  0.000E+00
 -1.683  0.000E+00
 -1.673  0.000E+00
 -1.663  0.000E+00
 -1.653  0.000E+00
 -1.643  0.000E+00
 -1.633  0.000E+00
 -1.623  0.000E+00
 -1.613  0.000E+00
 -1.603  0.000E+00
 -1.593  0.000E+00
 -1.583  0.000E+00
 -1.573  0.000E+00
 -1.563  0.000E+00
 -1.553  0.000E+00
 -1.543  0.000E+00
 -1.533  0.000E+00
 -1.523  0.000E+00
 -1.513  0.000E+00
 -1.503  0.000E+00
 -1.493  0.000E+00
 -1.483  0.000E+00
 -1.473  0.000E+00
 -1.463  0.000E+00
 -1.453  0.000E+00
 -1.443  0.000E+00
 -1.433  0.000E+00
 -1.423  0.000E+00
 -1.413  0.000E+00
 -1.403  0.000E+00
 -1.393  0.000E+00
 -1.383  0.000E+00
 -1.373  0.000E+00
 -1.363  0.000E+00
 -1.353  0.000E+00
 -1.343  0.000E+00
 -1.333  0.000E+00
 -1.323  0.000E+00
 -1.313  0.000E+00
 -1.303  0.000E+00
 -1.293  0.000E+00
 -1.283  0.000E+00
 -1.273  0.000E+00
 -1.263  0.000E+00
 -1.253  0.000E+00
 -1.243  0.000E+00
 -1.233  0.000E+00
 -1.223  0.000E+00
 -1.213  0.000E+00
 -1.203  0.000E+00
 -1.193  0.000E+00
 -1.183  0.000E+00
 -1.173  0.000E+00
 -1.163  0.000E+00
 -1.153  0.000E+00
 -1.143  0.000E+00
 -1.133  0.000E+00
 -1.123  0.000E+00
 -1.113  0.000E+00
 -1.103  0.000E+00
 -1.093  0.000E+00
 -1.083  0.000E+00
 -1.073  0.000E+00
 -1.063  0.000E+00
 -1.053  0.000E+00
 -1.043  0.000E+00
 -1.033  0.000E+00
 -1.023  0.000E+00
 -1.013  0.000E+00
 -1.003  0.000E+00
 -0.993  0.000E+00
 -0.983  0.000E+00
 -0.973  0.000E+00
 -0.963  0.000E+00
 -0.953  0.000E+00
 -0.943  0.000E+00
 -0.933  0.000E+00
 -0.923  0.000E+00
 -0.913  0.000E+00
 -0.903  0.000E+00
 -0.893  0.000E+00
 -0.883  0.000E+00
 -0.873  0.000E+00
 -0.863  0.000E+00
 -0.853  0.000E+00
 -0.843  0.000E+00
 -0.833  0.000E+00
 -0.823  0.000E+00
 -0.813  0.000E+00
 -0.803  0.000E+00
 -0.793  0.000E+00
 -0.783  0.000E+00
 -0.773  0.000E+00
 -0.763  0.000E+00
 -0.753  0.000E+00
 -0.743  0.000E+00
 -0.733  0.000E+00
 -0.723  0.000E+00
 -0.713  0.000E+00
 -0.703  0.000E+00
 -0.693  0.000E+00
 -0.683  0.000E+00
 -0.673  0.000E+00
 -0.663  0.000E+00
 -0.653  0.000E+00
 -0.643  0.000E+00
 -0.633  0.000E+00
 -0.623  0.000E+00
 -0.613  0.000E+00
 -0.603  0.000E+00
 -0.593  0.000E+00
 -0.583  0.000E+00
 -0.573  0.000E+00
 -0.563  0.000E+00
 -0.553  0.000E+00
 -0.543  0.000E+00
 -0.533  0.000E+00
 -0.523  0.000E+00
 -0.513  0.000E+00
 -0.503  0.000E+00
 -0.493  0.000E+00
 -0.483  0.000E+00
 -0.473  0.000E+00
 -0.463  0.000E+00
 -0.453  0.000E+00
 -0.443  0.000E+00
 -0.433  0.000E+00
 -0.423  0.000E+00
 -0.413  0.000E+00
 -0.403  0.000E+00
 -0.393  0.000E+00
 -0.383  0.000E+00
 -0.373  0.000E+00
 -0.363  0.000E+00
 -0.353  0.000E+00
 -0.343  0.000E+00
 -0.333  0.000E+00
 -0.323  0.000E+00
 -0.313  0.000E+00
 -0.303  0.000E+00
 -0.293  0.000E+00
 -0.283  0.000E+00
 -0.273  0.000E+00
 -0.263  0.000E+00
 -0.253  0.000E+00
 -0.243  0.000E+00
 -0.233  0.000E+00
 -0.223  0.000E+00
 -0.213  0.000E+00
 -0.203  0.000E+00
 -0.193  0.000E+00
 -0.183  0.000E+00
 -0.173  0.000E+00
 -0.163  0.000E+00
 -0.153  0.000E+00
 -0.143  0.000E+00
 -0.133  0.000E+00
 -0.123  0.000E+00
 -0.113  0.000E+00
 -0.103  0.000E+00
 -0.093  0.000E+00
 -0.083  0.000E+00
 -0.073  0.000E+00
 -0.063  0.000E+00
 -0.053  0.000E+00
 -0.043  0.000E+00
 -0.033  0.000E+00
 -0.023  0.000E+00
 -0.013  0.000E+00
 -0.003  0.000E+00
  0.007  0.000E+00
  0.017  0.000E+00
  0.027  0.000E+00
  0.037  0.000E+00
  0.047  0.000E+00
  0.057  0.000E+00
  0.067  0.000E+00
  0.077  0.000E+00
  0.087  0.000E+00
  0.097  0.000E+00
  0.107  0.000E+00
  0.117  0.000E+00
  0.127  0.000E+00
  0.137  0.000E+00
  0.147  0.000E+00
  0.157  0.000E+00
  0.167  0.000E+00
  0.177  0.000E+00
  0.187  0.000E+00
  0.197  0.000E+00
  0.207  0.000E+00
  0.217  0.000E+00
  0.227  0.000E+00
  0.237  0.000E+00
  0.247  0.000E+00
  0.257  0.000E+00
  0.267  0.000E+00
  0.277  0.000E+00
  0.287  0.000E+00
  0.297  0.000E+00
  0.307  0.000E+00
  0.317  0.000E+00
  0.327  0.000E+00
  0.337  0.000E+00
  0.347  0.000E+00
  0.357  0.000E+00
  0.367  0.000E+00
  0.377  0.000E+00
  0.387  0.000E+00
  0.397  0.000E+00
  0.407  0.000E+00
  0.417  0.000E+00
  0.427  0.000E+00
  0.437  0.000E+00
  0.447  0.000E+00
  0.457  0.000E+00
  0.467  0.000E+00
  0.477  0.000E+00
  0.487  0.000E+00
  0.497  0.000E+00
  0.507  0.000E+00
  0.517  0.000E+00
  0.527  0.000E+00
  0.537  0.000E+00
  0.547  0.000E+00
  0.557  0.000E+00
  0.567  0.000E+00
  0.577  0.000E+00
  0.587  0.000E+00
  0.597  0.000E+00
  0.607  0.000E+00
  0.617  0.000E+00
  0.627  0.000E+00
  0.637  0.000E+00
  0.647  0.000E+00
  0.657  0.000E+00
  0.667  0.000E+00
  0.677  0.000E+00
  0.687  0.000E+00
  0.697  0.000E+00
  0.707  0.000E+00
  0.717  0.000E+00
  0.727  0.000E+00
  0.737  0.000E+00
  0.747  0.000E+00
  0.757  0.000E+00
  0.767  0.000E+00
  0.777  0.000E+00
  0.787  0.000E+00
  0.797  0.000E+00
  0.807  0.000E+00
  0.817  0.000E+00
  0.827  0.000E+00
  0.837  0.000E+00
  0.847  0.000E+00
  0.857  0.498E-03
  0.867  0.298E-02
  0.877  0.755E-02
  0.887  0.142E-01
  0.897  0.229E-01
  0.907  0.338E-01
  0.917  0.466E-01
  0.927  0.550E-01
  0.937  0.610E-01
  0.947  0.653E-01
  0.957  0.680E-01
  0.967  0.693E-01
  0.977  0.713E-01
  0.987  0.743E-01
  0.997  0.780E-01
  1.007  0.818E-01
  1.017  0.856E-01
  1.027  0.894E-01
  1.037  0.931E-01
  1.047  0.968E-01
  1.057  0.101E+00
  1.067  0.104E+00
  1.077  0.108E+00
  1.087  0.111E+00
  1.097  0.115E+00
  1.107  0.119E+00
  1.117  0.122E+00
  1.127  0.124E+00
  1.137  0.126E+00
  1.147  0.129E+00
  1.157  0.132E+00
  1.167  0.134E+00
  1.177  0.137E+00
  1.187  0.140E+00
  1.197  0.143E+00
  1.207  0.146E+00
  1.217  0.149E+00
  1.227  0.152E+00
  1.237  0.154E+00
  1.247  0.156E+00
  1.257  0.159E+00
  1.267  0.161E+00
  1.277  0.164E+00
  1.287  0.167E+00
  1.297  0.169E+00
  1.307  0.172E+00
  1.317  0.175E+00
  1.327  0.178E+00
  1.337  0.181E+00
  1.347  0.184E+00
  1.357  0.187E+00
  1.367  0.190E+00
  1.377  0.193E+00
  1.387  0.198E+00
  1.397  0.206E+00
  1.407  0.218E+00
  1.417  0.234E+00
  1.427  0.253E+00
  1.437  0.277E+00
  1.447  0.276E+00
  1.457  0.282E+00
  1.467  0.291E+00
  1.477  0.301E+00
  1.487  0.310E+00
  1.497  0.320E+00
  1.507  0.330E+00
  1.517  0.340E+00
  1.527  0.351E+00
  1.537  0.361E+00
  1.547  0.372E+00
  1.557  0.382E+00
  1.567  0.391E+00
  1.577  0.400E+00
  1.587  0.411E+00
  1.597  0.423E+00
  1.607  0.434E+00
  1.617  0.447E+00
  1.627  0.460E+00
  1.637  0.482E+00
  1.647  0.503E+00
  1.657  0.525E+00
  1.667  0.549E+00
  1.677  0.576E+00
  1.687  0.609E+00
  1.697  0.648E+00
  1.707  0.693E+00
  1.717  0.737E+00
  1.727  0.778E+00
  1.737  0.791E+00
  1.747  0.766E+00
  1.757  0.757E+00
  1.767  0.738E+00
  1.777  0.725E+00
  1.787  0.720E+00
  1.797  0.720E+00
  1.807  0.727E+00
  1.817  0.730E+00
  1.827  0.732E+00
  1.837  0.733E+00
  1.847  0.729E+00
  1.857  0.731E+00
  1.867  0.731E+00
  1.877  0.736E+00
  1.887  0.712E+00
  1.897  0.665E+00
  1.907  0.608E+00
  1.917  0.556E+00
  1.927  0.537E+00
  1.937  0.525E+00
  1.947  0.502E+00
  1.957  0.481E+00
  1.967  0.462E+00
  1.977  0.442E+00
  1.987  0.424E+00
  1.997  0.404E+00
  2.007  0.389E+00
  2.017  0.375E+00
  2.027  0.362E+00
  2.037  0.349E+00
  2.047  0.337E+00
  2.057  0.325E+00
  2.067  0.313E+00
  2.077  0.301E+00
  2.087  0.291E+00
  2.097  0.281E+00
  2.107  0.275E+00
  2.117  0.270E+00
  2.127  0.269E+00
  2.137  0.266E+00
  2.147  0.255E+00
  2.157  0.244E+00
  2.167  0.234E+00
  2.177  0.223E+00
  2.187  0.214E+00
  2.197  0.204E+00
  2.207  0.194E+00
  2.217  0.184E+00
  2.227  0.174E+00
  2.237  0.164E+00
  2.247  0.155E+00
  2.257  0.146E+00
  2.267  0.139E+00
  2.277  0.133E+00
  2.287  0.128E+00
  2.297  0.123E+00
  2.307  0.119E+00
  2.317  0.116E+00
  2.327  0.112E+00
  2.337  0.109E+00
  2.347  0.106E+00
  2.357  0.103E+00
  2.367  0.101E+00
  2.377  0.985E-01
  2.387  0.964E-01
  2.397  0.919E-01
  2.407  0.903E-01
  2.417  0.889E-01
  2.427  0.877E-01
  2.437  0.870E-01
  2.447  0.865E-01
  2.457  0.863E-01
  2.467  0.865E-01
  2.477  0.869E-01
  2.487  0.875E-01
  2.497  0.887E-01
  2.507  0.903E-01
  2.517  0.924E-01
  2.527  0.949E-01
  2.537  0.980E-01
  2.547  0.101E+00
  2.557  0.106E+00
  2.567  0.112E+00
  2.577  0.120E+00
  2.587  0.128E+00
  2.597  0.135E+00
  2.607  0.143E+00
  2.617  0.145E+00
  2.627  0.145E+00
  2.637  0.146E+00
  2.647  0.145E+00
  2.657  0.144E+00
  2.667  0.142E+00
  2.677  0.141E+00
  2.687  0.140E+00
  2.697  0.138E+00
  2.707  0.137E+00
  2.717  0.135E+00
  2.727  0.133E+00
  2.737  0.132E+00
  2.747  0.131E+00
  2.757  0.131E+00
  2.767  0.132E+00
  2.777  0.132E+00
  2.787  0.132E+00
  2.797  0.132E+00
  2.807  0.131E+00
  2.817  0.131E+00
  2.827  0.130E+00
  2.837  0.130E+00
  2.847  0.129E+00
  2.857  0.129E+00
  2.867  0.128E+00
  2.877  0.127E+00
  2.887  0.127E+00
  2.897  0.126E+00
  2.907  0.125E+00
  2.917  0.125E+00
  2.927  0.125E+00
  2.937  0.125E+00
  2.947  0.125E+00
  2.957  0.124E+00
  2.967  0.124E+00
  2.977  0.124E+00
  2.987  0.124E+00
  2.997  0.123E+00
  3.007  0.123E+00
  3.017  0.123E+00
  3.027  0.123E+00
  3.037  0.122E+00
  3.047  0.122E+00
  3.057  0.122E+00
  3.067  0.122E+00
  3.077  0.122E+00
  3.087  0.122E+00
  3.097  0.122E+00
  3.107  0.122E+00
  3.117  0.122E+00
  3.127  0.122E+00
  3.137  0.122E+00
  3.147  0.122E+00
  3.157  0.122E+00
  3.167  0.122E+00
  3.177  0.122E+00
  3.187  0.122E+00
  3.197  0.122E+00
  3.207  0.122E+00
  3.217  0.122E+00
  3.227  0.121E+00
  3.237  0.121E+00
  3.247  0.120E+00
  3.257  0.120E+00
  3.267  0.119E+00
  3.277  0.119E+00
  3.287  0.118E+00
  3.297  0.118E+00
  3.307  0.117E+00
  3.317  0.116E+00
  3.327  0.116E+00
  3.337  0.115E+00
  3.347  0.114E+00
  3.357  0.113E+00
  3.367  0.112E+00
  3.377  0.111E+00
  3.387  0.109E+00
  3.397  0.109E+00
  3.407  0.107E+00
  3.417  0.106E+00
  3.427  0.105E+00
  3.437  0.104E+00
  3.447  0.103E+00
  3.457  0.103E+00
  3.467  0.102E+00
  3.477  0.101E+00
  3.487  0.100E+00
  3.497  0.997E-01
  3.507  0.100E+00
  3.517  0.998E-01
  3.527  0.994E-01
  3.537  0.989E-01
  3.547  0.984E-01
  3.557  0.980E-01
  3.567  0.976E-01
  3.577  0.972E-01
  3.587  0.967E-01
  3.597  0.962E-01
  3.607  0.956E-01
  3.617  0.951E-01
  3.627  0.946E-01
  3.637  0.941E-01
  3.647  0.940E-01
  3.657  0.942E-01
  3.667  0.947E-01
  3.677  0.957E-01
  3.687  0.968E-01
  3.697  0.981E-01
  3.707  0.995E-01
  3.717  0.101E+00
  3.727  0.102E+00
  3.737  0.103E+00
  3.747  0.105E+00
  3.757  0.106E+00
  3.767  0.106E+00
  3.777  0.106E+00
  3.787  0.106E+00
  3.797  0.106E+00
  3.807  0.106E+00
  3.817  0.106E+00
  3.827  0.106E+00
  3.837  0.107E+00
  3.847  0.109E+00
  3.857  0.113E+00
  3.867  0.115E+00
  3.877  0.115E+00
  3.887  0.115E+00
  3.897  0.114E+00
  3.907  0.115E+00
  3.917  0.116E+00
  3.927  0.120E+00
  3.937  0.119E+00
  3.947  0.121E+00
  3.957  0.122E+00
  3.967  0.123E+00
  3.977  0.125E+00
  3.987  0.129E+00
  3.997  0.137E+00
  4.007  0.146E+00
  4.017  0.145E+00
  4.027  0.145E+00
  4.037  0.148E+00
  4.047  0.149E+00
  4.057  0.152E+00
  4.067  0.147E+00
  4.077  0.142E+00
  4.087  0.142E+00
  4.097  0.140E+00
  4.107  0.139E+00
  4.117  0.138E+00
  4.127  0.137E+00
  4.137  0.135E+00
  4.147  0.133E+00
  4.157  0.132E+00
  4.167  0.130E+00
  4.177  0.128E+00
  4.187  0.126E+00
  4.197  0.124E+00
  4.207  0.123E+00
  4.217  0.121E+00
  4.227  0.120E+00
  4.237  0.118E+00
  4.247  0.118E+00
  4.257  0.118E+00
  4.267  0.118E+00
  4.277  0.117E+00
  4.287  0.116E+00
  4.297  0.115E+00
  4.307  0.114E+00
  4.317  0.112E+00
  4.327  0.111E+00
  4.337  0.110E+00
  4.347  0.109E+00
  4.357  0.107E+00
  4.367  0.106E+00
  4.377  0.105E+00
  4.387  0.104E+00
  4.397  0.103E+00
  4.407  0.102E+00
  4.417  0.102E+00
  4.427  0.101E+00
  4.437  0.995E-01
  4.447  0.982E-01
  4.457  0.967E-01
  4.467  0.952E-01
  4.477  0.934E-01
  4.487  0.917E-01
  4.497  0.900E-01
  4.507  0.883E-01
  4.517  0.868E-01
  4.527  0.854E-01
  4.537  0.840E-01
  4.547  0.827E-01
  4.557  0.816E-01
  4.567  0.809E-01
  4.577  0.799E-01
  4.587  0.796E-01
  4.597  0.790E-01
  4.607  0.777E-01
  4.617  0.764E-01
  4.627  0.752E-01
  4.637  0.740E-01
  4.647  0.727E-01
  4.657  0.712E-01
  4.667  0.694E-01
  4.677  0.675E-01
  4.687  0.658E-01
  4.697  0.640E-01
  4.707  0.627E-01
  4.717  0.608E-01
  4.727  0.581E-01
  4.737  0.552E-01
  4.747  0.530E-01
  4.757  0.512E-01
  4.767  0.493E-01
  4.777  0.473E-01
  4.787  0.452E-01
  4.797  0.432E-01
  4.807  0.414E-01
  4.817  0.398E-01
  4.827  0.383E-01
  4.837  0.368E-01
  4.847  0.354E-01
  4.857  0.342E-01
  4.867  0.329E-01
  4.877  0.316E-01
  4.887  0.303E-01
  4.897  0.291E-01
  4.907  0.280E-01
  4.917  0.270E-01
  4.927  0.259E-01
  4.937  0.249E-01
  4.947  0.238E-01
  4.957  0.229E-01
  4.967  0.219E-01
  4.977  0.210E-01
  4.987  0.200E-01
  4.997  0.191E-01
  5.007  0.181E-01
  5.017  0.174E-01
  5.027  0.165E-01
  5.037  0.156E-01
  5.047  0.148E-01
  5.057  0.140E-01
  5.067  0.135E-01
  5.077  0.129E-01
  5.087  0.126E-01
  5.097  0.120E-01
  5.107  0.114E-01
  5.117  0.107E-01
  5.127  0.101E-01
  5.137  0.948E-02
  5.147  0.888E-02
  5.157  0.819E-02
  5.167  0.758E-02
  5.177  0.702E-02
  5.187  0.652E-02
  5.197  0.603E-02
  5.207  0.559E-02
  5.217  0.547E-02
  5.227  0.518E-02
  5.237  0.484E-02
  5.247  0.436E-02
  5.257  0.370E-02
  5.267  0.315E-02
  5.277  0.270E-02
  5.287  0.234E-02
  5.297  0.223E-02
  5.307  0.223E-02
  5.317  0.171E-02
  5.327  0.674E-03
  5.337  0.114E-03
  5.347  0.000E+00
  5.357  0.000E+00
  5.367  0.000E+00
  5.377  0.000E+00
  5.387  0.000E+00
  5.397  0.000E+00
  5.407  0.000E+00
  5.417  0.000E+00
  5.427  0.000E+00
  5.437  0.000E+00
  5.447  0.000E+00
  5.457  0.000E+00
  5.467  0.000E+00
  5.477  0.000E+00
  5.487  0.000E+00
  5.497  0.000E+00
  5.507  0.000E+00
  5.517  0.000E+00
  5.527  0.000E+00
  5.537  0.000E+00
  5.547  0.000E+00
  5.557  0.000E+00
  5.567  0.000E+00
  5.577  0.000E+00
  5.587  0.000E+00
  5.597  0.000E+00
  5.607  0.000E+00
  5.617  0.000E+00
  5.627  0.000E+00
  5.637  0.000E+00
  5.647  0.000E+00
  5.657  0.000E+00
  5.667  0.000E+00
  5.677  0.000E+00
  5.687  0.000E+00
  5.697  0.000E+00
  5.707  0.000E+00
  5.717  0.000E+00
  5.727  0.000E+00
  5.737  0.000E+00
  5.747  0.000E+00
  5.757  0.000E+00
  5.767  0.000E+00
  5.777  0.000E+00
  5.787  0.000E+00
  5.797  0.000E+00
  5.807  0.000E+00
  5.817  0.000E+00
  5.827  0.000E+00
  5.837  0.000E+00
  5.847  0.000E+00
  5.857  0.000E+00
  5.867  0.000E+00
  5.877  0.000E+00
  5.887  0.000E+00
  5.897  0.000E+00
  5.907  0.000E+00
  5.917  0.000E+00
  5.927  0.000E+00
  5.937  0.000E+00
  5.947  0.000E+00
  5.957  0.000E+00
  5.967  0.000E+00
  5.977  0.000E+00
  5.987  0.000E+00
  5.997  0.000E+00
  6.007  0.000E+00
  6.017  0.000E+00
  6.027  0.000E+00
  6.037  0.000E+00
  6.047  0.000E+00
  6.057  0.000E+00
  6.067  0.000E+00
  6.077  0.000E+00
  6.087  0.000E+00
  6.097  0.000E+00
  6.107  0.000E+00
  6.117  0.000E+00
  6.127  0.000E+00
  6.137  0.000E+00
  6.147  0.000E+00
  6.157  0.000E+00
  6.167  0.000E+00
  6.177  0.000E+00
  6.187  0.000E+00
  6.197  0.000E+00
  6.207  0.000E+00
  6.217  0.000E+00
  6.227  0.000E+00
  6.237  0.000E+00
  6.247  0.000E+00
  6.257  0.000E+00
  6.267  0.000E+00
  6.277  0.000E+00
  6.287  0.000E+00
  6.297  0.000E+00
  6.307  0.000E+00
  6.317  0.000E+00
  6.327  0.000E+00
  6.337  0.000E+00
  6.347  0.000E+00
  6.357  0.000E+00
  6.367  0.000E+00
  6.377  0.000E+00
  6.387  0.000E+00
  6.397  0.000E+00
  6.407  0.000E+00
  6.417  0.000E+00
  6.427  0.000E+00
  6.437  0.000E+00
  6.447  0.000E+00
  6.457  0.000E+00
  6.467  0.000E+00
  6.477  0.000E+00
  6.487  0.000E+00
  6.497  0.000E+00
  6.507  0.000E+00
  6.517  0.000E+00
  6.527  0.000E+00
  6.537  0.000E+00
  6.547  0.000E+00
  6.557  0.000E+00
  6.567  0.000E+00
  6.577  0.000E+00
  6.587  0.000E+00
  6.597  0.000E+00
  6.607  0.000E+00
  6.617  0.000E+00
  6.627  0.000E+00
  6.637  0.000E+00
  6.647  0.000E+00
  6.657  0.000E+00
  6.667  0.000E+00
  6.677  0.000E+00
  6.687  0.000E+00
  6.697  0.000E+00
  6.707  0.000E+00
  6.717  0.000E+00
  6.727  0.000E+00
  6.737  0.000E+00
  6.747  0.000E+00
  6.757  0.000E+00
  6.767  0.000E+00
  6.777  0.000E+00
  6.787  0.000E+00
  6.797  0.000E+00
  6.807  0.000E+00
  6.817  0.000E+00
  6.827  0.000E+00
  6.837  0.000E+00
  6.847  0.000E+00
  6.857  0.000E+00
  6.867  0.000E+00
  6.877  0.000E+00
  6.887  0.000E+00
  6.897  0.000E+00
  6.907  0.000E+00
  6.917  0.000E+00
  6.927  0.000E+00
  6.937  0.000E+00
  6.947  0.000E+00
  6.957  0.000E+00
  6.967  0.000E+00
  6.977  0.000E+00
  6.987  0.000E+00
  6.997  0.000E+00
  7.007  0.000E+00
  7.017  0.000E+00
  7.027  0.000E+00
  7.037  0.000E+00
  7.047  0.000E+00
  7.057  0.000E+00
  7.067  0.000E+00
  7.077  0.000E+00
  7.087  0.000E+00
  7.097  0.000E+00
  7.107  0.000E+00
  7.117  0.000E+00
  7.127  0.000E+00
  7.137  0.000E+00
  7.147  0.000E+00
  7.157  0.000E+00
  7.167  0.000E+00
  7.177  0.000E+00
  7.187  0.000E+00
  7.197  0.000E+00
  7.207  0.000E+00
  7.217  0.000E+00
  7.227  0.000E+00
  7.237  0.000E+00
  7.247  0.000E+00
  7.257  0.000E+00
  7.267  0.000E+00
  7.277  0.000E+00
  7.287  0.000E+00
  7.297  0.000E+00
  7.307  0.000E+00
  7.317  0.000E+00
  7.327  0.000E+00
  7.337  0.000E+00
  7.347  0.000E+00
  7.357  0.000E+00
  7.367  0.000E+00
  7.377  0.000E+00
  7.387  0.000E+00
  7.397  0.000E+00
  7.407  0.000E+00
  7.417  0.000E+00
  7.427  0.000E+00
  7.437  0.000E+00
  7.447  0.000E+00
  7.457  0.000E+00
  7.467  0.000E+00
  7.477  0.000E+00
  7.487  0.000E+00
  7.497  0.000E+00
  7.507  0.000E+00
  7.517  0.000E+00
  7.527  0.000E+00
  7.537  0.000E+00
  7.547  0.000E+00
  7.557  0.000E+00
  7.567  0.000E+00
  7.577  0.000E+00
  7.587  0.000E+00
  7.597  0.000E+00
  7.607  0.000E+00
  7.617  0.000E+00
  7.627  0.000E+00
  7.637  0.000E+00
  7.647  0.000E+00
  7.657  0.000E+00
  7.667  0.000E+00
  7.677  0.000E+00
  7.687  0.000E+00
  7.697  0.000E+00
  7.707  0.000E+00
  7.717  0.000E+00
  7.727  0.000E+00
  7.737  0.000E+00
  7.747  0.000E+00
  7.757  0.000E+00
  7.767  0.000E+00
  7.777  0.000E+00
  7.787  0.000E+00
  7.797  0.000E+00
  7.807  0.000E+00
  7.817  0.000E+00
  7.827  0.000E+00
  7.837  0.000E+00
  7.847  0.000E+00
  7.857  0.000E+00
  7.867  0.000E+00
  7.877  0.000E+00
  7.887  0.000E+00
  7.897  0.000E+00
  7.907  0.000E+00
  7.917  0.000E+00
  7.927  0.000E+00
  7.937  0.000E+00
  7.947  0.000E+00
  7.957  0.000E+00
  7.967  0.000E+00
  7.977  0.000E+00
  7.987  0.000E+00
  7.997  0.000E+00
  8.007  0.000E+00
  8.017  0.000E+00
  8.027  0.000E+00
  8.037  0.000E+00
  8.047  0.000E+00
  8.057  0.000E+00
  8.067  0.000E+00
  8.077  0.000E+00
  8.087  0.000E+00
  8.097  0.000E+00
  8.107  0.000E+00
  8.117  0.000E+00
  8.127  0.000E+00
  8.137  0.000E+00
  8.147  0.000E+00
  8.157  0.000E+00
  8.167  0.000E+00
  8.177  0.000E+00
  8.187  0.000E+00
  8.197  0.000E+00
  8.207  0.000E+00
  8.217  0.000E+00
  8.227  0.000E+00
  8.237  0.000E+00
  8.247  0.000E+00
  8.257  0.000E+00
  8.267  0.000E+00
  8.277  0.000E+00
  8.287  0.000E+00
  8.297  0.000E+00
  8.307  0.000E+00
  8.317  0.000E+00
  8.327  0.000E+00
  8.337  0.000E+00
  8.347  0.000E+00
  8.357  0.000E+00
  8.367  0.000E+00
  8.377  0.000E+00
  8.387  0.000E+00
  8.397  0.000E+00
  8.407  0.000E+00
  8.417  0.000E+00
  8.427  0.000E+00
  8.437  0.000E+00
  8.447  0.000E+00
  8.457  0.000E+00
  8.467  0.000E+00
  8.477  0.000E+00
  8.487  0.000E+00
  8.497  0.000E+00
  8.507  0.000E+00
  8.517  0.000E+00
  8.527  0.000E+00
  8.537  0.000E+00
  8.547  0.000E+00
  8.557  0.000E+00
  8.567  0.000E+00
  8.577  0.000E+00
  8.587  0.000E+00
  8.597  0.000E+00
  8.607  0.000E+00
  8.617  0.000E+00
  8.627  0.000E+00
  8.637  0.000E+00
  8.647  0.000E+00
  8.657  0.000E+00
  8.667  0.000E+00
  8.677  0.000E+00
  8.687  0.000E+00
  8.697  0.000E+00
  8.707  0.000E+00
  8.717  0.000E+00
  8.727  0.000E+00
  8.737  0.000E+00
  8.747  0.000E+00
  8.757  0.000E+00
  8.767  0.000E+00
  8.777  0.000E+00
  8.787  0.000E+00
  8.797  0.000E+00
  8.807  0.000E+00
  8.817  0.000E+00
  8.827  0.000E+00
  8.837  0.000E+00
  8.847  0.000E+00
  8.857  0.000E+00
  8.867  0.000E+00
  8.877  0.000E+00
  8.887  0.000E+00
  8.897  0.000E+00
  8.907  0.000E+00
  8.917  0.000E+00
  8.927  0.000E+00
  8.937  0.000E+00
  8.947  0.000E+00
  8.957  0.000E+00
  8.967  0.000E+00
  8.977  0.000E+00
  8.987  0.000E+00
  8.997  0.000E+00
  9.007  0.000E+00
  9.017  0.000E+00
  9.027  0.000E+00
  9.037  0.000E+00
  9.047  0.000E+00
  9.057  0.000E+00
  9.067  0.000E+00
  9.077  0.000E+00
  9.087  0.000E+00
  9.097  0.000E+00
  9.107  0.000E+00
  9.117  0.000E+00
  9.127  0.000E+00
  9.137  0.000E+00
  9.147  0.000E+00
  9.157  0.000E+00
  9.167  0.000E+00
  9.177  0.000E+00
  9.187  0.000E+00
  9.197  0.000E+00
  9.207  0.000E+00
  9.217  0.000E+00
  9.227  0.000E+00
  9.237  0.000E+00
  9.247  0.000E+00
  9.257  0.000E+00
  9.267  0.000E+00
  9.277  0.000E+00
  9.287  0.000E+00
  9.297  0.000E+00
  9.307  0.000E+00
  9.317  0.000E+00
  9.327  0.000E+00
  9.337  0.000E+00
  9.347  0.000E+00
  9.357  0.000E+00
  9.367  0.000E+00
  9.377  0.000E+00
  9.387  0.000E+00
  9.397  0.000E+00
  9.407  0.000E+00
  9.417  0.000E+00
  9.427  0.000E+00
  9.437  0.000E+00
  9.447  0.000E+00
  9.457  0.000E+00
  9.467  0.000E+00
  9.477  0.000E+00
  9.487  0.000E+00
  9.497  0.000E+00
  9.507  0.000E+00
  9.517  0.000E+00
  9.527  0.000E+00
  9.537  0.000E+00
  9.547  0.000E+00
  9.557  0.000E+00
  9.567  0.000E+00
  9.577  0.000E+00
  9.587  0.000E+00
  9.597  0.000E+00
  9.607  0.000E+00
  9.617  0.000E+00
  9.627  0.000E+00
  9.637  0.000E+00
  9.647  0.000E+00
  9.657  0.000E+00
  9.667  0.000E+00
  9.677  0.000E+00
  9.687  0.000E+00
  9.697  0.000E+00
  9.707  0.000E+00
  9.717  0.000E+00
  9.727  0.000E+00
  9.737  0.000E+00
  9.747  0.000E+00
  9.757  0.000E+00
  9.767  0.000E+00
  9.777  0.000E+00
  9.787  0.000E+00
  9.797  0.962E-05
  9.807  0.453E-04
  9.817  0.107E-03
  9.827  0.195E-03
  9.837  0.309E-03
  9.847  0.448E-03
  9.857  0.613E-03
  9.867  0.804E-03
  9.877  0.102E-02
  9.887  0.126E-02
  9.897  0.153E-02
  9.907  0.182E-02
  9.917  0.214E-02
  9.927  0.247E-02
  9.937  0.284E-02
  9.947  0.323E-02
  9.957  0.364E-02
  9.967  0.408E-02
  9.977  0.454E-02
  9.987  0.502E-02
  9.997  0.553E-02
 10.007  0.606E-02
 10.017  0.661E-02
 10.027  0.719E-02
 10.037  0.780E-02
 10.047  0.841E-02
 10.057  0.906E-02
 10.067  0.908E-02
 10.077  0.894E-02
 10.087  0.886E-02
 10.097  0.881E-02
 10.107  0.881E-02
 10.117  0.885E-02
 10.127  0.894E-02
 10.137  0.906E-02
 10.147  0.923E-02
 10.157  0.942E-02
 10.167  0.961E-02
 10.177  0.980E-02
 10.187  0.999E-02
 10.197  0.102E-01
 10.207  0.104E-01
 10.217  0.106E-01
 10.227  0.108E-01
 10.237  0.110E-01
 10.247  0.112E-01
 10.257  0.114E-01
 10.267  0.116E-01
 10.277  0.118E-01
 10.287  0.120E-01
 10.297  0.122E-01
 10.307  0.124E-01
 10.317  0.126E-01
 10.327  0.128E-01
 10.337  0.130E-01
 10.347  0.132E-01
 10.357  0.134E-01
 10.367  0.136E-01
 10.377  0.138E-01
 10.387  0.140E-01
 10.397  0.142E-01
 10.407  0.144E-01
 10.417  0.146E-01
 10.427  0.148E-01
 10.437  0.151E-01
 10.447  0.153E-01
 10.457  0.155E-01
 10.467  0.157E-01
 10.477  0.159E-01
 10.487  0.162E-01
 10.497  0.164E-01
 10.507  0.166E-01
 10.517  0.168E-01
 10.527  0.170E-01
 10.537  0.172E-01
 10.547  0.174E-01
 10.557  0.176E-01
 10.567  0.178E-01
 10.577  0.180E-01
 10.587  0.181E-01
 10.597  0.184E-01
 10.607  0.185E-01
 10.617  0.187E-01
 10.627  0.190E-01
 10.637  0.191E-01
 10.647  0.193E-01
 10.657  0.194E-01
 10.667  0.197E-01
 10.677  0.199E-01
 10.687  0.200E-01
 10.697  0.203E-01
 10.707  0.205E-01
 10.717  0.206E-01
 10.727  0.209E-01
 10.737  0.211E-01
 10.747  0.213E-01
 10.757  0.215E-01
 10.767  0.217E-01
 10.777  0.219E-01
 10.787  0.221E-01
 10.797  0.223E-01
 10.807  0.225E-01
 10.817  0.228E-01
 10.827  0.230E-01
 10.837  0.232E-01
 10.847  0.234E-01
 10.857  0.236E-01
 10.867  0.239E-01
 10.877  0.240E-01
 10.887  0.243E-01
 10.897  0.244E-01
 10.907  0.247E-01
 10.917  0.249E-01
 10.927  0.251E-01
 10.937  0.253E-01
 10.947  0.256E-01
 10.957  0.257E-01
 10.967  0.260E-01
 10.977  0.262E-01
 10.987  0.265E-01
 10.997  0.266E-01
 11.007  0.269E-01
 11.017  0.271E-01
 11.027  0.273E-01
 11.037  0.276E-01
 11.047  0.277E-01
 11.057  0.280E-01
 11.067  0.282E-01
 11.077  0.284E-01
 11.087  0.287E-01
 11.097  0.289E-01
 11.107  0.291E-01
 11.117  0.294E-01
 11.127  0.296E-01
 11.137  0.299E-01
 11.147  0.301E-01
 11.157  0.304E-01
 11.167  0.306E-01
 11.177  0.309E-01
 11.187  0.311E-01
 11.197  0.314E-01
 11.207  0.317E-01
 11.217  0.319E-01
 11.227  0.322E-01
 11.237  0.324E-01
 11.247  0.328E-01
 11.257  0.330E-01
 11.267  0.333E-01
 11.277  0.335E-01
 11.287  0.338E-01
 11.297  0.341E-01
 11.307  0.344E-01
 11.317  0.346E-01
 11.327  0.350E-01
 11.337  0.352E-01
 11.347  0.355E-01
 11.357  0.358E-01
 11.367  0.361E-01
 11.377  0.364E-01
 11.387  0.367E-01
 11.397  0.369E-01
 11.407  0.373E-01
 11.417  0.375E-01
 11.427  0.379E-01
 11.437  0.381E-01
 11.447  0.385E-01
 11.457  0.387E-01
 11.467  0.390E-01
 11.477  0.393E-01
 11.487  0.396E-01
 11.497  0.399E-01
 11.507  0.402E-01
 11.517  0.406E-01
 11.527  0.408E-01
 11.537  0.412E-01
 11.547  0.415E-01
 11.557  0.417E-01
 11.567  0.421E-01
 11.577  0.424E-01
 11.587  0.427E-01
 11.597  0.430E-01
 11.607  0.433E-01
 11.617  0.437E-01
 11.627  0.440E-01
 11.637  0.442E-01
 11.647  0.446E-01
 11.657  0.449E-01
 11.667  0.452E-01
 11.677  0.456E-01
 11.687  0.459E-01
 11.697  0.462E-01
 11.707  0.466E-01
 11.717  0.469E-01
 11.727  0.472E-01
 11.737  0.475E-01
 11.747  0.479E-01
 11.757  0.482E-01
 11.767  0.485E-01
 11.777  0.489E-01
 11.787  0.493E-01
 11.797  0.496E-01
 11.807  0.499E-01
 11.817  0.504E-01
 11.827  0.507E-01
 11.837  0.511E-01
 11.847  0.514E-01
 11.857  0.519E-01
 11.867  0.523E-01
 11.877  0.527E-01
 11.887  0.531E-01
 11.897  0.536E-01
 11.907  0.540E-01
 11.917  0.544E-01
 11.927  0.548E-01
 11.937  0.552E-01
 11.947  0.557E-01
 11.957  0.561E-01
 11.967  0.566E-01
 11.977  0.570E-01
 11.987  0.575E-01
 11.997  0.579E-01
 12.007  0.584E-01
 12.017  0.588E-01
 12.027  0.594E-01
 12.037  0.598E-01
 12.047  0.603E-01
 12.057  0.608E-01
 12.067  0.613E-01
 12.077  0.617E-01
 12.087  0.622E-01
 12.097  0.627E-01
 12.107  0.632E-01
 12.117  0.638E-01
 12.127  0.642E-01
 12.137  0.648E-01
 12.147  0.653E-01
 12.157  0.658E-01
 12.167  0.663E-01
 12.177  0.669E-01
 12.187  0.674E-01
 12.197  0.680E-01
 12.207  0.685E-01
 12.217  0.690E-01
 12.227  0.697E-01
 12.237  0.702E-01
 12.247  0.708E-01
 12.257  0.714E-01
 12.267  0.720E-01
 12.277  0.725E-01
 12.287  0.731E-01
 12.297  0.737E-01
 12.307  0.743E-01
 12.317  0.750E-01
 12.327  0.755E-01
 12.337  0.761E-01
 12.347  0.768E-01
 12.357  0.774E-01
 12.367  0.780E-01
 12.377  0.787E-01
 12.387  0.793E-01
 12.397  0.799E-01
 12.407  0.806E-01
 12.417  0.812E-01
 12.427  0.819E-01
 12.437  0.825E-01
 12.447  0.832E-01
 12.457  0.839E-01
 12.467  0.845E-01
 12.477  0.852E-01
 12.487  0.859E-01
 12.497  0.866E-01
 12.507  0.873E-01
 12.517  0.880E-01
 12.527  0.889E-01
 12.537  0.896E-01
 12.547  0.905E-01
 12.557  0.914E-01
 12.567  0.923E-01
 12.577  0.933E-01
 12.587  0.942E-01
 12.597  0.952E-01
 12.607  0.963E-01
 12.617  0.973E-01
 12.627  0.984E-01
 12.637  0.995E-01
 12.647  0.101E+00
 12.657  0.102E+00
 12.667  0.103E+00
 12.677  0.104E+00
 12.687  0.105E+00
 12.697  0.106E+00
 12.707  0.108E+00
 12.717  0.109E+00
 12.727  0.110E+00
 12.737  0.112E+00
 12.747  0.113E+00
 12.757  0.114E+00
 12.767  0.116E+00
 12.777  0.117E+00
 12.787  0.118E+00
 12.797  0.120E+00
 12.807  0.121E+00
 12.817  0.123E+00
 12.827  0.124E+00
 12.837  0.125E+00
 12.847  0.127E+00
 12.857  0.128E+00
 12.867  0.130E+00
 12.877  0.131E+00
 12.887  0.133E+00
 12.897  0.135E+00
 12.907  0.136E+00
 12.917  0.138E+00
 12.927  0.141E+00
 12.937  0.141E+00
 12.947  0.145E+00
 12.957  0.148E+00
 12.967  0.152E+00
 12.977  0.155E+00
 12.987  0.159E+00
 12.997  0.163E+00
 13.007  0.167E+00
 13.017  0.171E+00
 13.027  0.176E+00
 13.037  0.180E+00
 13.047  0.186E+00
 13.057  0.194E+00
 13.067  0.202E+00
 13.077  0.210E+00
 13.087  0.218E+00
 13.097  0.226E+00
 13.107  0.233E+00
 13.117  0.241E+00
 13.127  0.247E+00
 13.137  0.254E+00
 13.147  0.260E+00
 13.157  0.268E+00
 13.167  0.273E+00
 13.177  0.278E+00
 13.187  0.281E+00
 13.197  0.283E+00
 13.207  0.283E+00
 13.217  0.281E+00
 13.227  0.278E+00
 13.237  0.273E+00
 13.247  0.252E+00
 13.257  0.253E+00
 13.267  0.254E+00
 13.277  0.255E+00
 13.287  0.256E+00
 13.297  0.257E+00
 13.307  0.258E+00
 13.317  0.259E+00
 13.327  0.261E+00
 13.337  0.263E+00
 13.347  0.264E+00
 13.357  0.265E+00
 13.367  0.266E+00
 13.377  0.267E+00
 13.387  0.268E+00
 13.397  0.268E+00
 13.407  0.269E+00
 13.417  0.270E+00
 13.427  0.271E+00
 13.437  0.272E+00
 13.447  0.273E+00
 13.457  0.275E+00
 13.467  0.275E+00
 13.477  0.276E+00
 13.487  0.277E+00
 13.497  0.277E+00
 13.507  0.278E+00
 13.517  0.278E+00
 13.527  0.279E+00
 13.537  0.279E+00
 13.547  0.279E+00
 13.557  0.280E+00
 13.567  0.280E+00
 13.577  0.281E+00
 13.587  0.281E+00
 13.597  0.280E+00
 13.607  0.280E+00
 13.617  0.280E+00
 13.627  0.279E+00
 13.637  0.279E+00
 13.647  0.279E+00
 13.657  0.278E+00
 13.667  0.279E+00
 13.677  0.279E+00
 13.687  0.279E+00
 13.697  0.279E+00
 13.707  0.279E+00
 13.717  0.279E+00
 13.727  0.279E+00
 13.737  0.280E+00
 13.747  0.281E+00
 13.757  0.281E+00
 13.767  0.282E+00
 13.777  0.283E+00
 13.787  0.283E+00
 13.797  0.284E+00
 13.807  0.285E+00
 13.817  0.286E+00
 13.827  0.287E+00
 13.837  0.287E+00
 13.847  0.288E+00
 13.857  0.288E+00
 13.867  0.289E+00
 13.877  0.290E+00
 13.887  0.290E+00
 13.897  0.291E+00
 13.907  0.291E+00
 13.917  0.292E+00
 13.927  0.293E+00
 13.937  0.294E+00
 13.947  0.294E+00
 13.957  0.294E+00
 13.967  0.295E+00
 13.977  0.295E+00
 13.987  0.297E+00
 13.997  0.297E+00
 14.007  0.298E+00
 14.017  0.298E+00
 14.027  0.299E+00
 14.037  0.300E+00
 14.047  0.301E+00
 14.057  0.301E+00
 14.067  0.301E+00
 14.077  0.303E+00
 14.087  0.303E+00
 14.097  0.304E+00
 14.107  0.304E+00
 14.117  0.305E+00
 14.127  0.305E+00
 14.137  0.306E+00
 14.147  0.306E+00
 14.157  0.307E+00
 14.167  0.307E+00
 14.177  0.307E+00
 14.187  0.307E+00
 14.197  0.308E+00
 14.207  0.309E+00
 14.217  0.309E+00
 14.227  0.311E+00
 14.237  0.311E+00
 14.247  0.311E+00
 14.257  0.313E+00
 14.267  0.313E+00
 14.277  0.314E+00
 14.287  0.315E+00
 14.297  0.316E+00
 14.307  0.316E+00
 14.317  0.318E+00
 14.327  0.318E+00
 14.337  0.319E+00
 14.347  0.321E+00
 14.357  0.321E+00
 14.367  0.323E+00
 14.377  0.323E+00
 14.387  0.324E+00
 14.397  0.325E+00
 14.407  0.326E+00
 14.417  0.328E+00
 14.427  0.328E+00
 14.437  0.330E+00
 14.447  0.331E+00
 14.457  0.333E+00
 14.467  0.333E+00
 14.477  0.335E+00
 14.487  0.336E+00
 14.497  0.338E+00
 14.507  0.340E+00
 14.517  0.341E+00
 14.527  0.343E+00
 14.537  0.346E+00
 14.547  0.347E+00
 14.557  0.349E+00
 14.567  0.352E+00
 14.577  0.354E+00
 14.587  0.356E+00
 14.597  0.359E+00
 14.607  0.361E+00
 14.617  0.364E+00
 14.627  0.366E+00
 14.637  0.369E+00
 14.647  0.373E+00
 14.657  0.376E+00
 14.667  0.380E+00
 14.677  0.384E+00
 14.687  0.389E+00
 14.697  0.394E+00
 14.707  0.398E+00
 14.717  0.403E+00
 14.727  0.407E+00
 14.737  0.412E+00
 14.747  0.416E+00
 14.757  0.420E+00
 14.767  0.424E+00
 14.777  0.427E+00
 14.787  0.431E+00
 14.797  0.443E+00
 14.807  0.451E+00
 14.817  0.455E+00
 14.827  0.459E+00
 14.837  0.466E+00
 14.847  0.474E+00
 14.857  0.477E+00
 14.867  0.478E+00
 14.877  0.480E+00
 14.887  0.481E+00
 14.897  0.483E+00
 14.907  0.484E+00
 14.917  0.487E+00
 14.927  0.488E+00
 14.937  0.490E+00
 14.947  0.507E+00
 14.957  0.530E+00
 14.967  0.552E+00
 14.977  0.568E+00
 14.987  0.574E+00
 14.997  0.583E+00
 15.007  0.594E+00
 15.017  0.606E+00
 15.027  0.617E+00
 15.037  0.627E+00
 15.047  0.635E+00
 15.057  0.641E+00
 15.067  0.645E+00
 15.077  0.647E+00
 15.087  0.648E+00
 15.097  0.644E+00
 15.107  0.639E+00
 15.117  0.634E+00
 15.127  0.629E+00
 15.137  0.623E+00
 15.147  0.616E+00
 15.157  0.610E+00
 15.167  0.603E+00
 15.177  0.599E+00
 15.187  0.596E+00
 15.197  0.595E+00
 15.207  0.590E+00
 15.217  0.591E+00
 15.227  0.592E+00
 15.237  0.592E+00
 15.247  0.593E+00
 15.257  0.594E+00
 15.267  0.594E+00
 15.277  0.596E+00
 15.287  0.596E+00
 15.297  0.596E+00
 15.307  0.596E+00
 15.317  0.597E+00
 15.327  0.597E+00
 15.337  0.597E+00
 15.347  0.597E+00
 15.357  0.597E+00
 15.367  0.597E+00
 15.377  0.597E+00
 15.387  0.598E+00
 15.397  0.624E+00
 15.407  0.627E+00
 15.417  0.624E+00
 15.427  0.616E+00
 15.437  0.600E+00
 15.447  0.586E+00
 15.457  0.571E+00
 15.467  0.556E+00
 15.477  0.539E+00
 15.487  0.524E+00
 15.497  0.509E+00
 15.507  0.495E+00
 15.517  0.482E+00
 15.527  0.469E+00
 15.537  0.458E+00
 15.547  0.448E+00
 15.557  0.440E+00
 15.567  0.433E+00
 15.577  0.427E+00
 15.587  0.423E+00
 15.597  0.420E+00
 15.607  0.416E+00
 15.617  0.413E+00
 15.627  0.410E+00
 15.637  0.406E+00
 15.647  0.403E+00
 15.657  0.400E+00
 15.667  0.397E+00
 15.677  0.394E+00
 15.687  0.391E+00
 15.697  0.388E+00
 15.707  0.386E+00
 15.717  0.383E+00
 15.727  0.380E+00
 15.737  0.377E+00
 15.747  0.375E+00
 15.757  0.373E+00
 15.767  0.371E+00
 15.777  0.369E+00
 15.787  0.367E+00
 15.797  0.364E+00
 15.807  0.363E+00
 15.817  0.361E+00
 15.827  0.359E+00
 15.837  0.358E+00
 15.847  0.356E+00
 15.857  0.355E+00
 15.867  0.353E+00
 15.877  0.350E+00
 15.887  0.348E+00
 15.897  0.345E+00
 15.907  0.342E+00
 15.917  0.338E+00
 15.927  0.337E+00
 15.937  0.337E+00
 15.947  0.336E+00
 15.957  0.336E+00
 15.967  0.335E+00
 15.977  0.335E+00
 15.987  0.335E+00
 15.997  0.334E+00
 16.007  0.334E+00
 16.017  0.334E+00
 16.027  0.334E+00
 16.037  0.332E+00
 16.047  0.332E+00
 16.057  0.332E+00
 16.067  0.331E+00
 16.077  0.331E+00
 16.087  0.331E+00
 16.097  0.332E+00
 16.107  0.333E+00
 16.117  0.334E+00
 16.127  0.335E+00
 16.137  0.335E+00
 16.147  0.336E+00
 16.157  0.337E+00
 16.167  0.338E+00
 16.177  0.338E+00
 16.187  0.339E+00
 16.197  0.340E+00
 16.207  0.341E+00
 16.217  0.343E+00
 16.227  0.344E+00
 16.237  0.345E+00
 16.247  0.347E+00
 16.257  0.347E+00
 16.267  0.349E+00
 16.277  0.351E+00
 16.287  0.352E+00
 16.297  0.353E+00
 16.307  0.355E+00
 16.317  0.356E+00
 16.327  0.359E+00
 16.337  0.361E+00
 16.347  0.363E+00
 16.357  0.363E+00
 16.367  0.364E+00
 16.377  0.363E+00
 16.387  0.363E+00
 16.397  0.362E+00
 16.407  0.362E+00
 16.417  0.363E+00
 16.427  0.364E+00
 16.437  0.364E+00
 16.447  0.365E+00
 16.457  0.366E+00
 16.467  0.369E+00
 16.477  0.370E+00
 16.487  0.372E+00
 16.497  0.375E+00
 16.507  0.378E+00
 16.517  0.381E+00
 16.527  0.384E+00
 16.537  0.387E+00
 16.547  0.390E+00
 16.557  0.394E+00
 16.567  0.397E+00
 16.577  0.403E+00
 16.587  0.409E+00
 16.597  0.415E+00
 16.607  0.422E+00
 16.617  0.430E+00
 16.627  0.438E+00
 16.637  0.446E+00
 16.647  0.453E+00
 16.657  0.462E+00
 16.667  0.475E+00
 16.677  0.497E+00
 16.687  0.521E+00
 16.697  0.543E+00
 16.707  0.564E+00
 16.717  0.585E+00
 16.727  0.607E+00
 16.737  0.630E+00
 16.747  0.654E+00
 16.757  0.679E+00
 16.767  0.704E+00
 16.777  0.729E+00
 16.787  0.752E+00
 16.797  0.775E+00
 16.807  0.804E+00
 16.817  0.845E+00
 16.827  0.890E+00
 16.837  0.934E+00
 16.847  0.977E+00
 16.857  0.102E+01
 16.867  0.106E+01
 16.877  0.109E+01
 16.887  0.112E+01
 16.897  0.116E+01
 16.907  0.118E+01
 16.917  0.118E+01
 16.927  0.118E+01
 16.937  0.117E+01
 16.947  0.119E+01
 16.957  0.121E+01
 16.967  0.123E+01
 16.977  0.125E+01
 16.987  0.126E+01
 16.997  0.128E+01
 17.007  0.130E+01
 17.017  0.132E+01
 17.027  0.133E+01
 17.037  0.135E+01
 17.047  0.135E+01
 17.057  0.140E+01
 17.067  0.145E+01
 17.077  0.147E+01
 17.087  0.150E+01
 17.097  0.155E+01
 17.107  0.158E+01
 17.117  0.160E+01
 17.127  0.164E+01
 17.137  0.169E+01
 17.147  0.172E+01
 17.157  0.176E+01
 17.167  0.179E+01
 17.177  0.181E+01
 17.187  0.180E+01
 17.197  0.174E+01
 17.207  0.162E+01
 17.217  0.150E+01
 17.227  0.141E+01
 17.237  0.135E+01
 17.247  0.131E+01
 17.257  0.130E+01
 17.267  0.129E+01
 17.277  0.129E+01
 17.287  0.128E+01
 17.297  0.128E+01
 17.307  0.128E+01
 17.317  0.127E+01
 17.327  0.128E+01
 17.337  0.128E+01
 17.347  0.131E+01
 17.357  0.136E+01
 17.367  0.140E+01
 17.377  0.144E+01
 17.387  0.145E+01
 17.397  0.137E+01
 17.407  0.134E+01
 17.417  0.131E+01
 17.427  0.127E+01
 17.437  0.124E+01
 17.447  0.121E+01
 17.457  0.117E+01
 17.467  0.114E+01
 17.477  0.111E+01
 17.487  0.108E+01
 17.497  0.105E+01
 17.507  0.103E+01
 17.517  0.101E+01
 17.527  0.996E+00
 17.537  0.974E+00
 17.547  0.986E+00
 17.557  0.969E+00
 17.567  0.860E+00
 17.577  0.763E+00
 17.587  0.704E+00
 17.597  0.678E+00
 17.607  0.681E+00
 17.617  0.688E+00
 17.627  0.694E+00
 17.637  0.701E+00
 17.647  0.708E+00
 17.657  0.715E+00
 17.667  0.722E+00
 17.677  0.728E+00
 17.687  0.735E+00
 17.697  0.742E+00
 17.707  0.747E+00
 17.717  0.754E+00
 17.727  0.759E+00
 17.737  0.766E+00
 17.747  0.771E+00
 17.757  0.777E+00
 17.767  0.782E+00
 17.777  0.787E+00
 17.787  0.795E+00
 17.797  0.802E+00
 17.807  0.810E+00
 17.817  0.819E+00
 17.827  0.822E+00
 17.837  0.820E+00
 17.847  0.821E+00
 17.857  0.823E+00
 17.867  0.824E+00
 17.877  0.824E+00
 17.887  0.820E+00
 17.897  0.818E+00
 17.907  0.819E+00
 17.917  0.819E+00
 17.927  0.819E+00
 17.937  0.819E+00
 17.947  0.824E+00
 17.957  0.831E+00
 17.967  0.839E+00
 17.977  0.850E+00
 17.987  0.859E+00
 17.997  0.865E+00
 18.007  0.868E+00
 18.017  0.866E+00
 18.027  0.862E+00
 18.037  0.854E+00
 18.047  0.844E+00
 18.057  0.841E+00
 18.067  0.851E+00
 18.077  0.877E+00
 18.087  0.881E+00
 18.097  0.852E+00
 18.107  0.818E+00
 18.117  0.780E+00
 18.127  0.741E+00
 18.137  0.710E+00
 18.147  0.692E+00
 18.157  0.677E+00
 18.167  0.664E+00
 18.177  0.652E+00
 18.187  0.639E+00
 18.197  0.633E+00
 18.207  0.627E+00
 18.217  0.622E+00
 18.227  0.617E+00
 18.237  0.612E+00
 18.247  0.606E+00
 18.257  0.601E+00
 18.267  0.597E+00
 18.277  0.592E+00
 18.287  0.587E+00
 18.297  0.583E+00
 18.307  0.579E+00
 18.317  0.574E+00
 18.327  0.570E+00
 18.337  0.567E+00
 18.347  0.563E+00
 18.357  0.560E+00
 18.367  0.557E+00
 18.377  0.554E+00
 18.387  0.551E+00
 18.397  0.548E+00
 18.407  0.546E+00
 18.417  0.543E+00
 18.427  0.539E+00
 18.437  0.536E+00
 18.447  0.533E+00
 18.457  0.529E+00
 18.467  0.526E+00
 18.477  0.523E+00
 18.487  0.519E+00
 18.497  0.516E+00
 18.507  0.513E+00
 18.517  0.510E+00
 18.527  0.507E+00
 18.537  0.504E+00
 18.547  0.501E+00
 18.557  0.498E+00
 18.567  0.495E+00
 18.577  0.492E+00
 18.587  0.490E+00
 18.597  0.488E+00
 18.607  0.486E+00
 18.617  0.483E+00
 18.627  0.481E+00
 18.637  0.478E+00
 18.647  0.476E+00
 18.657  0.474E+00
 18.667  0.472E+00
 18.677  0.471E+00
 18.687  0.469E+00
 18.697  0.467E+00
 18.707  0.465E+00
 18.717  0.463E+00
 18.727  0.461E+00
 18.737  0.460E+00
 18.747  0.458E+00
 18.757  0.456E+00
 18.767  0.455E+00
 18.777  0.453E+00
 18.787  0.451E+00
 18.797  0.450E+00
 18.807  0.448E+00
 18.817  0.447E+00
 18.827  0.446E+00
 18.837  0.444E+00
 18.847  0.443E+00
 18.857  0.441E+00
 18.867  0.440E+00
 18.877  0.438E+00
 18.887  0.438E+00
 18.897  0.436E+00
 18.907  0.435E+00
 18.917  0.433E+00
 18.927  0.432E+00
 18.937  0.431E+00
 18.947  0.429E+00
 18.957  0.428E+00
 18.967  0.426E+00
 18.977  0.426E+00
 18.987  0.424E+00
 18.997  0.424E+00
 19.007  0.422E+00
 19.017  0.421E+00
 19.027  0.419E+00
 19.037  0.419E+00
 19.047  0.417E+00
 19.057  0.416E+00
 19.067  0.414E+00
 19.077  0.414E+00
 19.087  0.412E+00
 19.097  0.411E+00
 19.107  0.409E+00
 19.117  0.409E+00
 19.127  0.407E+00
 19.137  0.406E+00
 19.147  0.404E+00
 19.157  0.404E+00
 19.167  0.402E+00
 19.177  0.401E+00
 19.187  0.399E+00
 19.197  0.399E+00
 19.207  0.397E+00
 19.217  0.395E+00
 19.227  0.393E+00
 19.237  0.390E+00
 19.247  0.389E+00
 19.257  0.388E+00
 19.267  0.386E+00
 19.277  0.384E+00
 19.287  0.383E+00
 19.297  0.381E+00
 19.307  0.379E+00
 19.317  0.379E+00
 19.327  0.377E+00
 19.337  0.376E+00
 19.347  0.374E+00
 19.357  0.372E+00
 19.367  0.372E+00
 19.377  0.370E+00
 19.387  0.369E+00
 19.397  0.367E+00
 19.407  0.366E+00
 19.417  0.365E+00
 19.427  0.363E+00
 19.437  0.362E+00
 19.447  0.361E+00
 19.457  0.360E+00
 19.467  0.358E+00
 19.477  0.357E+00
 19.487  0.356E+00
 19.497  0.355E+00
 19.507  0.353E+00
 19.517  0.353E+00
 19.527  0.351E+00
 19.537  0.350E+00
 19.547  0.348E+00
 19.557  0.348E+00
 19.567  0.346E+00
 19.577  0.344E+00
 19.587  0.344E+00
 19.597  0.342E+00
 19.607  0.342E+00
 19.617  0.340E+00
 19.627  0.339E+00
 19.637  0.339E+00
 19.647  0.337E+00
 19.657  0.337E+00
 19.667  0.335E+00
 19.677  0.335E+00
 19.687  0.333E+00
 19.697  0.333E+00
 19.707  0.331E+00
 19.717  0.331E+00
 19.727  0.331E+00
 19.737  0.329E+00
 19.747  0.329E+00
 19.757  0.327E+00
 19.767  0.327E+00
 19.777  0.326E+00
 19.787  0.325E+00
 19.797  0.324E+00
 19.807  0.322E+00
 19.817  0.322E+00
 19.827  0.321E+00
 19.837  0.320E+00
 19.847  0.319E+00
 19.857  0.318E+00
 19.867  0.317E+00
 19.877  0.316E+00
 19.887  0.315E+00
 19.897  0.314E+00
 19.907  0.313E+00
 19.917  0.312E+00
 19.927  0.311E+00
 19.937  0.309E+00
 19.947  0.309E+00
 19.957  0.308E+00
 19.967  0.306E+00
 19.977  0.306E+00
 19.987  0.305E+00
 19.997  0.303E+00
 20.007  0.303E+00
 20.017  0.302E+00
 20.027  0.300E+00
 20.037  0.300E+00
 20.047  0.298E+00
 20.057  0.297E+00
 20.067  0.297E+00
 20.077  0.296E+00
 20.087  0.294E+00
 20.097  0.294E+00
 20.107  0.293E+00
 20.117  0.292E+00
 20.127  0.291E+00
 20.137  0.290E+00
 20.147  0.290E+00
 20.157  0.288E+00
 20.167  0.287E+00
 20.177  0.287E+00
 20.187  0.286E+00
 20.197  0.286E+00
 20.207  0.284E+00
 20.217  0.283E+00
 20.227  0.283E+00
 20.237  0.282E+00
 20.247  0.282E+00
 20.257  0.281E+00
 20.267  0.281E+00
 20.277  0.280E+00
 20.287  0.279E+00
 20.297  0.278E+00
 20.307  0.277E+00
 20.317  0.277E+00
 20.327  0.276E+00
 20.337  0.277E+00
 20.347  0.277E+00
 20.357  0.277E+00
 20.367  0.277E+00
 20.377  0.276E+00
 20.387  0.276E+00
 20.397  0.276E+00
 20.407  0.275E+00
 20.417  0.275E+00
 20.427  0.274E+00
 20.437  0.274E+00
 20.447  0.273E+00
 20.457  0.273E+00
 20.467  0.274E+00
 20.477  0.273E+00
 20.487  0.274E+00
 20.497  0.273E+00
 20.507  0.274E+00
 20.517  0.274E+00
 20.527  0.274E+00
 20.537  0.275E+00
 20.547  0.276E+00
 20.557  0.277E+00
 20.567  0.278E+00
 20.577  0.280E+00
 20.587  0.280E+00
 20.597  0.281E+00
 20.607  0.283E+00
 20.617  0.285E+00
 20.627  0.287E+00
 20.637  0.288E+00
 20.647  0.290E+00
 20.657  0.292E+00
 20.667  0.294E+00
 20.677  0.297E+00
 20.687  0.299E+00
 20.697  0.301E+00
 20.707  0.305E+00
 20.717  0.307E+00
 20.727  0.310E+00
 20.737  0.313E+00
 20.747  0.316E+00
 20.757  0.319E+00
 20.767  0.322E+00
 20.777  0.326E+00
 20.787  0.325E+00
 20.797  0.325E+00
 20.807  0.325E+00
 20.817  0.327E+00
 20.827  0.328E+00
 20.837  0.333E+00
 20.847  0.336E+00
 20.857  0.339E+00
 20.867  0.340E+00
 20.877  0.342E+00
 20.887  0.345E+00
 20.897  0.347E+00
 20.907  0.349E+00
 20.917  0.351E+00
 20.927  0.354E+00
 20.937  0.357E+00
 20.947  0.361E+00
 20.957  0.364E+00
 20.967  0.367E+00
 20.977  0.369E+00
 20.987  0.371E+00
 20.997  0.371E+00
 21.007  0.373E+00
 21.017  0.375E+00
 21.027  0.376E+00
 21.037  0.378E+00
 21.047  0.379E+00
 21.057  0.382E+00
 21.067  0.384E+00
 21.077  0.387E+00
 21.087  0.391E+00
 21.097  0.393E+00
 21.107  0.393E+00
 21.117  0.395E+00
 21.127  0.396E+00
 21.137  0.397E+00
 21.147  0.399E+00
 21.157  0.400E+00
 21.167  0.403E+00
 21.177  0.404E+00
 21.187  0.406E+00
 21.197  0.409E+00
 21.207  0.411E+00
 21.217  0.414E+00
 21.227  0.417E+00
 21.237  0.421E+00
 21.247  0.426E+00
 21.257  0.432E+00
 21.267  0.441E+00
 21.277  0.454E+00
 21.287  0.469E+00
 21.297  0.487E+00
 21.307  0.509E+00
 21.317  0.533E+00
 21.327  0.561E+00
 21.337  0.592E+00
 21.347  0.629E+00
 21.357  0.679E+00
 21.367  0.706E+00
 21.377  0.708E+00
 21.387  0.702E+00
 21.397  0.694E+00
 21.407  0.692E+00
 21.417  0.682E+00
 21.427  0.679E+00
 21.437  0.677E+00
 21.447  0.676E+00
 21.457  0.675E+00
 21.467  0.673E+00
 21.477  0.670E+00
 21.487  0.669E+00
 21.497  0.667E+00
 21.507  0.663E+00
 21.517  0.658E+00
 21.527  0.651E+00
 21.537  0.644E+00
 21.547  0.635E+00
 21.557  0.628E+00
 21.567  0.620E+00
 21.577  0.612E+00
 21.587  0.604E+00
 21.597  0.598E+00
 21.607  0.592E+00
 21.617  0.588E+00
 21.627  0.588E+00
 21.637  0.592E+00
 21.647  0.597E+00
 21.657  0.604E+00
 21.667  0.612E+00
 21.677  0.647E+00
 21.687  0.666E+00
 21.697  0.677E+00
 21.707  0.691E+00
 21.717  0.704E+00
 21.727  0.718E+00
 21.737  0.744E+00
 21.747  0.767E+00
 21.757  0.777E+00
 21.767  0.785E+00
 21.777  0.794E+00
 21.787  0.804E+00
 21.797  0.813E+00
 21.807  0.822E+00
 21.817  0.832E+00
 21.827  0.103E+01
 21.837  0.983E+00
 21.847  0.985E+00
 21.857  0.100E+01
 21.867  0.102E+01
 21.877  0.103E+01
 21.887  0.104E+01
 21.897  0.105E+01
 21.907  0.105E+01
 21.917  0.105E+01
 21.927  0.105E+01
 21.937  0.105E+01
 21.947  0.105E+01
 21.957  0.105E+01
 21.967  0.105E+01
 21.977  0.105E+01
 21.987  0.105E+01
 21.997  0.105E+01
 22.007  0.104E+01
 22.017  0.104E+01
 22.027  0.104E+01
 22.037  0.103E+01
 22.047  0.102E+01
 22.057  0.101E+01
 22.067  0.996E+00
 22.077  0.987E+00
 22.087  0.980E+00
 22.097  0.976E+00
 22.107  0.975E+00
 22.117  0.974E+00
 22.127  0.975E+00
 22.137  0.977E+00
 22.147  0.980E+00
 22.157  0.984E+00
 22.167  0.985E+00
 22.177  0.983E+00
 22.187  0.981E+00
 22.197  0.979E+00
 22.207  0.975E+00
 22.217  0.970E+00
 22.227  0.965E+00
 22.237  0.960E+00
 22.247  0.955E+00
 22.257  0.949E+00
 22.267  0.944E+00
 22.277  0.939E+00
 22.287  0.936E+00
 22.297  0.932E+00
 22.307  0.929E+00
 22.317  0.923E+00
 22.327  0.915E+00
 22.337  0.906E+00
 22.347  0.897E+00
 22.357  0.887E+00
 22.367  0.877E+00
 22.377  0.866E+00
 22.387  0.853E+00
 22.397  0.834E+00
 22.407  0.817E+00
 22.417  0.800E+00
 22.427  0.780E+00
 22.437  0.765E+00
 22.447  0.753E+00
 22.457  0.759E+00
 22.467  0.776E+00
 22.477  0.691E+00
 22.487  0.684E+00
 22.497  0.697E+00
 22.507  0.817E+00
 22.517  0.562E+00
 22.527  0.537E+00
 22.537  0.519E+00
 22.547  0.505E+00
 22.557  0.493E+00
 22.567  0.483E+00
 22.577  0.474E+00
 22.587  0.467E+00
 22.597  0.460E+00
 22.607  0.453E+00
 22.617  0.446E+00
 22.627  0.439E+00
 22.637  0.433E+00
 22.647  0.427E+00
 22.657  0.420E+00
 22.667  0.414E+00
 22.677  0.408E+00
 22.687  0.403E+00
 22.697  0.397E+00
 22.707  0.391E+00
 22.717  0.384E+00
 22.727  0.377E+00
 22.737  0.369E+00
 22.747  0.362E+00
 22.757  0.355E+00
 22.767  0.349E+00
 22.777  0.343E+00
 22.787  0.338E+00
 22.797  0.333E+00
 22.807  0.329E+00
 22.817  0.326E+00
 22.827  0.324E+00
 22.837  0.322E+00
 22.847  0.320E+00
 22.857  0.318E+00
 22.867  0.316E+00
 22.877  0.315E+00
 22.887  0.313E+00
 22.897  0.312E+00
 22.907  0.311E+00
 22.917  0.309E+00
 22.927  0.308E+00
 22.937  0.306E+00
 22.947  0.305E+00
 22.957  0.304E+00
 22.967  0.302E+00
 22.977  0.300E+00
 22.987  0.299E+00
 22.997  0.296E+00
 23.007  0.294E+00
 23.017  0.293E+00
 23.027  0.292E+00
 23.037  0.290E+00
 23.047  0.289E+00
 23.057  0.288E+00
 23.067  0.287E+00
 23.077  0.286E+00
 23.087  0.285E+00
 23.097  0.284E+00
 23.107  0.283E+00
 23.117  0.282E+00
 23.127  0.282E+00
 23.137  0.282E+00
 23.147  0.282E+00
 23.157  0.282E+00
 23.167  0.281E+00
 23.177  0.280E+00
 23.187  0.278E+00
 23.197  0.277E+00
 23.207  0.275E+00
 23.217  0.273E+00
 23.227  0.272E+00
 23.237  0.273E+00
 23.247  0.275E+00
 23.257  0.278E+00
 23.267  0.280E+00
 23.277  0.283E+00
 23.287  0.286E+00
 23.297  0.289E+00
 23.307  0.292E+00
 23.317  0.296E+00
 23.327  0.300E+00
 23.337  0.304E+00
 23.347  0.308E+00
 23.357  0.312E+00
 23.367  0.317E+00
 23.377  0.321E+00
 23.387  0.328E+00
 23.397  0.337E+00
 23.407  0.346E+00
 23.417  0.355E+00
 23.427  0.363E+00
 23.437  0.371E+00
 23.447  0.378E+00
 23.457  0.384E+00
 23.467  0.390E+00
 23.477  0.396E+00
 23.487  0.401E+00
 23.497  0.406E+00
 23.507  0.411E+00
 23.517  0.415E+00
 23.527  0.418E+00
 23.537  0.418E+00
 23.547  0.409E+00
 23.557  0.401E+00
 23.567  0.394E+00
 23.577  0.388E+00
 23.587  0.385E+00
 23.597  0.384E+00
 23.607  0.383E+00
 23.617  0.382E+00
 23.627  0.381E+00
 23.637  0.381E+00
 23.647  0.380E+00
 23.657  0.379E+00
 23.667  0.379E+00
 23.677  0.380E+00
 23.687  0.382E+00
 23.697  0.388E+00
 23.707  0.390E+00
 23.717  0.459E+00
 23.727  0.455E+00
 23.737  0.440E+00
 23.747  0.425E+00
 23.757  0.411E+00
 23.767  0.398E+00
 23.777  0.385E+00
 23.787  0.373E+00
 23.797  0.362E+00
 23.807  0.352E+00
 23.817  0.343E+00
 23.827  0.335E+00
 23.837  0.327E+00
 23.847  0.320E+00
 23.857  0.313E+00
 23.867  0.307E+00
 23.877  0.294E+00
 23.887  0.290E+00
 23.897  0.285E+00
 23.907  0.280E+00
 23.917  0.276E+00
 23.927  0.272E+00
 23.937  0.268E+00
 23.947  0.265E+00
 23.957  0.261E+00
 23.967  0.258E+00
 23.977  0.255E+00
 23.987  0.252E+00
 23.997  0.248E+00
 24.007  0.243E+00
 24.017  0.238E+00
 24.027  0.232E+00
 24.037  0.225E+00
 24.047  0.221E+00
 24.057  0.218E+00
 24.067  0.215E+00
 24.077  0.212E+00
 24.087  0.209E+00
 24.097  0.206E+00
 24.107  0.203E+00
 24.117  0.200E+00
 24.127  0.198E+00
 24.137  0.195E+00
 24.147  0.192E+00
 24.157  0.189E+00
 24.167  0.187E+00
 24.177  0.183E+00
 24.187  0.181E+00
 24.197  0.178E+00
 24.207  0.176E+00
 24.217  0.174E+00
 24.227  0.171E+00
 24.237  0.169E+00
 24.247  0.167E+00
 24.257  0.165E+00
 24.267  0.162E+00
 24.277  0.160E+00
 24.287  0.158E+00
 24.297  0.156E+00
 24.307  0.154E+00
 24.317  0.152E+00
 24.327  0.151E+00
 24.337  0.148E+00
 24.347  0.146E+00
 24.357  0.144E+00
 24.367  0.142E+00
 24.377  0.141E+00
 24.387  0.139E+00
 24.397  0.138E+00
 24.407  0.136E+00
 24.417  0.134E+00
 24.427  0.133E+00
 24.437  0.131E+00
 24.447  0.130E+00
 24.457  0.129E+00
 24.467  0.127E+00
 24.477  0.126E+00
 24.487  0.125E+00
 24.497  0.123E+00
 24.507  0.122E+00
 24.517  0.121E+00
 24.527  0.119E+00
 24.537  0.117E+00
 24.547  0.116E+00
 24.557  0.115E+00
 24.567  0.113E+00
 24.577  0.112E+00
 24.587  0.111E+00
 24.597  0.110E+00
 24.607  0.109E+00
 24.617  0.108E+00
 24.627  0.106E+00
 24.637  0.105E+00
 24.647  0.104E+00
 24.657  0.103E+00
 24.667  0.102E+00
 24.677  0.101E+00
 24.687  0.100E+00
 24.697  0.990E-01
 24.707  0.979E-01
 24.717  0.969E-01
 24.727  0.960E-01
 24.737  0.949E-01
 24.747  0.939E-01
 24.757  0.930E-01
 24.767  0.920E-01
 24.777  0.911E-01
 24.787  0.903E-01
 24.797  0.895E-01
 24.807  0.886E-01
 24.817  0.878E-01
 24.827  0.870E-01
 24.837  0.862E-01
 24.847  0.853E-01
 24.857  0.846E-01
 24.867  0.838E-01
 24.877  0.831E-01
 24.887  0.824E-01
 24.897  0.817E-01
 24.907  0.809E-01
 24.917  0.802E-01
 24.927  0.795E-01
 24.937  0.788E-01
 24.947  0.781E-01
 24.957  0.775E-01
 24.967  0.768E-01
 24.977  0.761E-01
 24.987  0.755E-01
 24.997  0.749E-01
 25.007  0.743E-01
 25.017  0.737E-01
 25.027  0.732E-01
 25.037  0.726E-01
 25.047  0.721E-01
 25.057  0.717E-01
 25.067  0.712E-01
 25.077  0.708E-01
 25.087  0.703E-01
 25.097  0.699E-01
 25.107  0.696E-01
 25.117  0.692E-01
 25.127  0.689E-01
 25.137  0.686E-01
 25.147  0.684E-01
 25.157  0.681E-01
 25.167  0.679E-01
 25.177  0.677E-01
 25.187  0.674E-01
 25.197  0.673E-01
 25.207  0.671E-01
 25.217  0.669E-01
 25.227  0.667E-01
 25.237  0.667E-01
 25.247  0.667E-01
 25.257  0.667E-01
 25.267  0.667E-01
 25.277  0.667E-01
 25.287  0.666E-01
 25.297  0.665E-01
 25.307  0.664E-01
 25.317  0.663E-01
 25.327  0.661E-01
 25.337  0.659E-01
 25.347  0.656E-01
 25.357  0.653E-01
 25.367  0.650E-01
 25.377  0.647E-01
 25.387  0.643E-01
 25.397  0.639E-01
 25.407  0.635E-01
 25.417  0.630E-01
 25.427  0.626E-01
 25.437  0.621E-01
 25.447  0.616E-01
 25.457  0.611E-01
 25.467  0.606E-01
 25.477  0.602E-01
 25.487  0.598E-01
 25.497  0.596E-01
 25.507  0.592E-01
 25.517  0.586E-01
 25.527  0.575E-01
 25.537  0.560E-01
 25.547  0.545E-01
 25.557  0.531E-01
 25.567  0.510E-01
 25.577  0.490E-01
 25.587  0.475E-01
 25.597  0.464E-01
 25.607  0.455E-01
 25.617  0.450E-01
 25.627  0.445E-01
 25.637  0.440E-01
 25.647  0.436E-01
 25.657  0.431E-01
 25.667  0.425E-01
 25.677  0.420E-01
 25.687  0.415E-01
 25.697  0.410E-01
 25.707  0.405E-01
 25.717  0.400E-01
 25.727  0.395E-01
 25.737  0.391E-01
 25.747  0.386E-01
 25.757  0.383E-01
 25.767  0.378E-01
 25.777  0.376E-01
 25.787  0.374E-01
 25.797  0.374E-01
 25.807  0.381E-01
 25.817  0.388E-01
 25.827  0.393E-01
 25.837  0.398E-01
 25.847  0.401E-01
 25.857  0.402E-01
 25.867  0.404E-01
 25.877  0.407E-01
 25.887  0.409E-01
 25.897  0.412E-01
 25.907  0.416E-01
 25.917  0.420E-01
 25.927  0.424E-01
 25.937  0.429E-01
 25.947  0.434E-01
 25.957  0.444E-01
 25.967  0.453E-01
 25.977  0.463E-01
 25.987  0.473E-01
 25.997  0.482E-01
 26.007  0.491E-01
 26.017  0.500E-01
 26.027  0.507E-01
 26.037  0.515E-01
 26.047  0.520E-01
 26.057  0.526E-01
 26.067  0.531E-01
 26.077  0.536E-01
 26.087  0.540E-01
 26.097  0.544E-01
 26.107  0.548E-01
 26.117  0.553E-01
 26.127  0.557E-01
 26.137  0.562E-01
 26.147  0.570E-01
 26.157  0.574E-01
 26.167  0.574E-01
 26.177  0.580E-01
 26.187  0.585E-01
 26.197  0.589E-01
 26.207  0.593E-01
 26.217  0.594E-01
 26.227  0.596E-01
 26.237  0.595E-01
 26.247  0.594E-01
 26.257  0.592E-01
 26.267  0.589E-01
 26.277  0.585E-01
 26.287  0.582E-01
 26.297  0.572E-01
 26.307  0.560E-01
 26.317  0.546E-01
 26.327  0.529E-01
 26.337  0.512E-01
 26.347  0.498E-01
 26.357  0.487E-01
 26.367  0.480E-01
 26.377  0.474E-01
 26.387  0.471E-01
 26.397  0.465E-01
 26.407  0.459E-01
 26.417  0.454E-01
 26.427  0.450E-01
 26.437  0.446E-01
 26.447  0.443E-01
 26.457  0.444E-01
 26.467  0.447E-01
 26.477  0.452E-01
 26.487  0.455E-01
 26.497  0.458E-01
 26.507  0.461E-01
 26.517  0.465E-01
 26.527  0.469E-01
 26.537  0.473E-01
 26.547  0.478E-01
 26.557  0.483E-01
 26.567  0.488E-01
 26.577  0.491E-01
 26.587  0.493E-01
 26.597  0.495E-01
 26.607  0.497E-01
 26.617  0.499E-01
 26.627  0.501E-01
 26.637  0.503E-01
 26.647  0.505E-01
 26.657  0.507E-01
 26.667  0.508E-01
 26.677  0.506E-01
 26.687  0.508E-01
 26.697  0.509E-01
 26.707  0.512E-01
 26.717  0.514E-01
 26.727  0.517E-01
 26.737  0.519E-01
 26.747  0.521E-01
 26.757  0.524E-01
 26.767  0.526E-01
 26.777  0.527E-01
 26.787  0.525E-01
 26.797  0.523E-01
 26.807  0.520E-01
 26.817  0.520E-01
 26.827  0.519E-01
 26.837  0.519E-01
 26.847  0.520E-01
 26.857  0.520E-01
 26.867  0.522E-01
 26.877  0.523E-01
 26.887  0.525E-01
 26.897  0.529E-01
 26.907  0.533E-01
 26.917  0.542E-01
 26.927  0.552E-01
 26.937  0.562E-01
 26.947  0.572E-01
 26.957  0.584E-01
 26.967  0.596E-01
 26.977  0.608E-01
 26.987  0.620E-01
 26.997  0.633E-01
 27.007  0.645E-01
 27.017  0.657E-01
 27.027  0.669E-01
 27.037  0.679E-01
 27.047  0.688E-01
 27.057  0.696E-01
 27.067  0.702E-01
 27.077  0.705E-01
 27.087  0.702E-01
 27.097  0.697E-01
 27.107  0.694E-01
 27.117  0.689E-01
 27.127  0.685E-01
 27.137  0.682E-01
 27.147  0.677E-01
 27.157  0.674E-01
 27.167  0.671E-01
 27.177  0.668E-01
 27.187  0.664E-01
 27.197  0.661E-01
 27.207  0.658E-01
 27.217  0.655E-01
 27.227  0.651E-01
 27.237  0.648E-01
 27.247  0.645E-01
 27.257  0.641E-01
 27.267  0.639E-01
 27.277  0.635E-01
 27.287  0.632E-01
 27.297  0.628E-01
 27.307  0.625E-01
 27.317  0.622E-01
 27.327  0.619E-01
 27.337  0.615E-01
 27.347  0.611E-01
 27.357  0.609E-01
 27.367  0.605E-01
 27.377  0.601E-01
 27.387  0.598E-01
 27.397  0.595E-01
 27.407  0.591E-01
 27.417  0.587E-01
 27.427  0.584E-01
 27.437  0.580E-01
 27.447  0.577E-01
 27.457  0.572E-01
 27.467  0.570E-01
 27.477  0.567E-01
 27.487  0.563E-01
 27.497  0.557E-01
 27.507  0.551E-01
 27.517  0.544E-01
 27.527  0.539E-01
 27.537  0.534E-01
 27.547  0.529E-01
 27.557  0.525E-01
 27.567  0.521E-01
 27.577  0.518E-01
 27.587  0.515E-01
 27.597  0.512E-01
 27.607  0.510E-01
 27.617  0.507E-01
 27.627  0.504E-01
 27.637  0.502E-01
 27.647  0.500E-01
 27.657  0.498E-01
 27.667  0.496E-01
 27.677  0.494E-01
 27.687  0.493E-01
 27.697  0.491E-01
 27.707  0.489E-01
 27.717  0.488E-01
 27.727  0.487E-01
 27.737  0.485E-01
 27.747  0.484E-01
 27.757  0.483E-01
 27.767  0.482E-01
 27.777  0.480E-01
 27.787  0.479E-01
 27.797  0.478E-01
 27.807  0.477E-01
 27.817  0.475E-01
 27.827  0.474E-01
 27.837  0.473E-01
 27.847  0.472E-01
 27.857  0.470E-01
 27.867  0.469E-01
 27.877  0.468E-01
 27.887  0.466E-01
 27.897  0.463E-01
 27.907  0.459E-01
 27.917  0.455E-01
 27.927  0.450E-01
 27.937  0.446E-01
 27.947  0.442E-01
 27.957  0.437E-01
 27.967  0.432E-01
 27.977  0.427E-01
 27.987  0.421E-01
 27.997  0.419E-01
 28.007  0.417E-01
 28.017  0.415E-01
 28.027  0.413E-01
 28.037  0.411E-01
 28.047  0.409E-01
 28.057  0.407E-01
 28.067  0.406E-01
 28.077  0.404E-01
 28.087  0.403E-01
 28.097  0.401E-01
 28.107  0.400E-01
 28.117  0.399E-01
 28.127  0.398E-01
 28.137  0.397E-01
 28.147  0.395E-01
 28.157  0.394E-01
 28.167  0.392E-01
 28.177  0.392E-01
 28.187  0.391E-01
 28.197  0.389E-01
 28.207  0.389E-01
 28.217  0.388E-01
 28.227  0.386E-01
 28.237  0.386E-01
 28.247  0.385E-01
 28.257  0.384E-01
 28.267  0.383E-01
 28.277  0.383E-01
 28.287  0.382E-01
 28.297  0.382E-01
 28.307  0.381E-01
 28.317  0.380E-01
 28.327  0.379E-01
 28.337  0.378E-01
 28.347  0.376E-01
 28.357  0.376E-01
 28.367  0.374E-01
 28.377  0.373E-01
 28.387  0.373E-01
 28.397  0.373E-01
 28.407  0.373E-01
 28.417  0.373E-01
 28.427  0.373E-01
 28.437  0.373E-01
 28.447  0.373E-01
 28.457  0.373E-01
 28.467  0.372E-01
 28.477  0.373E-01
 28.487  0.373E-01
 28.497  0.373E-01
 28.507  0.372E-01
 28.517  0.372E-01
 28.527  0.371E-01
 28.537  0.369E-01
 28.547  0.369E-01
 28.557  0.368E-01
 28.567  0.366E-01
 28.577  0.366E-01
 28.587  0.364E-01
 28.597  0.363E-01
 28.607  0.363E-01
 28.617  0.362E-01
 28.627  0.360E-01
 28.637  0.360E-01
 28.647  0.358E-01
 28.657  0.358E-01
 28.667  0.358E-01
 28.677  0.356E-01
 28.687  0.356E-01
 28.697  0.355E-01
 28.707  0.354E-01
 28.717  0.353E-01
 28.727  0.352E-01
 28.737  0.351E-01
 28.747  0.350E-01
 28.757  0.350E-01
 28.767  0.348E-01
 28.777  0.347E-01
 28.787  0.347E-01
 28.797  0.345E-01
 28.807  0.344E-01
 28.817  0.344E-01
 28.827  0.447E-01
 28.837  0.465E-01
 28.847  0.455E-01
 28.857  0.445E-01
 28.867  0.437E-01
 28.877  0.430E-01
 28.887  0.425E-01
 28.897  0.421E-01
 28.907  0.417E-01
 28.917  0.415E-01
 28.927  0.413E-01
 28.937  0.413E-01
 28.947  0.413E-01
 28.957  0.413E-01
 28.967  0.415E-01
 28.977  0.418E-01
 28.987  0.421E-01
 28.997  0.424E-01
 29.007  0.428E-01
 29.017  0.433E-01
 29.027  0.439E-01
 29.037  0.445E-01
 29.047  0.450E-01
 29.057  0.456E-01
 29.067  0.463E-01
 29.077  0.469E-01
 29.087  0.477E-01
 29.097  0.483E-01
 29.107  0.490E-01
 29.117  0.499E-01
 29.127  0.507E-01
 29.137  0.515E-01
 29.147  0.523E-01
 29.157  0.532E-01
 29.167  0.540E-01
 29.177  0.548E-01
 29.187  0.556E-01
 29.197  0.564E-01
 29.207  0.572E-01
 29.217  0.579E-01
 29.227  0.587E-01
 29.237  0.594E-01
 29.247  0.590E-01
 29.257  0.585E-01
 29.267  0.581E-01
 29.277  0.579E-01
 29.287  0.579E-01
 29.297  0.581E-01
 29.307  0.587E-01
 29.317  0.595E-01
 29.327  0.590E-01
 29.337  0.585E-01
 29.347  0.593E-01
 29.357  0.601E-01
 29.367  0.608E-01
 29.377  0.617E-01
 29.387  0.613E-01
 29.397  0.594E-01
 29.407  0.557E-01
 29.417  0.536E-01
 29.427  0.535E-01
 29.437  0.534E-01
 29.447  0.534E-01
 29.457  0.533E-01
 29.467  0.533E-01
 29.477  0.532E-01
 29.487  0.532E-01
 29.497  0.531E-01
 29.507  0.531E-01
 29.517  0.532E-01
 29.527  0.532E-01
 29.537  0.532E-01
 29.547  0.532E-01
 29.557  0.532E-01
 29.567  0.532E-01
 29.577  0.532E-01
 29.587  0.532E-01
 29.597  0.532E-01
 29.607  0.532E-01
 29.617  0.532E-01
 29.627  0.532E-01
 29.637  0.532E-01
 29.647  0.532E-01
 29.657  0.533E-01
 29.667  0.533E-01
 29.677  0.534E-01
 29.687  0.535E-01
 29.697  0.535E-01
 29.707  0.536E-01
 29.717  0.538E-01
 29.727  0.538E-01
 29.737  0.540E-01
 29.747  0.543E-01
 29.757  0.545E-01
 29.767  0.545E-01
 29.777  0.544E-01
 29.787  0.543E-01
 29.797  0.542E-01
 29.807  0.541E-01
 29.817  0.541E-01
 29.827  0.540E-01
 29.837  0.539E-01
 29.847  0.538E-01
 29.857  0.537E-01
 29.867  0.537E-01
 29.877  0.536E-01
 29.887  0.535E-01
 29.897  0.533E-01
 29.907  0.533E-01
 29.917  0.532E-01
 29.927  0.532E-01
 29.937  0.532E-01
 29.947  0.531E-01
 29.957  0.531E-01
 29.967  0.531E-01
 29.977  0.531E-01
 29.987  0.531E-01
 29.997  0.531E-01
 30.007  0.531E-01
 30.017  0.532E-01
 30.027  0.532E-01
 30.037  0.532E-01
 30.047  0.532E-01
 30.057  0.533E-01
 30.067  0.533E-01
 30.077  0.532E-01
 30.087  0.533E-01
 30.097  0.533E-01
 30.107  0.534E-01
 30.117  0.535E-01
 30.127  0.537E-01
 30.137  0.539E-01
 30.147  0.541E-01
 30.157  0.544E-01
 30.167  0.548E-01
 30.177  0.553E-01
 30.187  0.559E-01
 30.197  0.565E-01
 30.207  0.573E-01
 30.217  0.582E-01
 30.227  0.592E-01
 30.237  0.604E-01
 30.247  0.617E-01
 30.257  0.633E-01
 30.267  0.649E-01
 30.277  0.667E-01
 30.287  0.687E-01
 30.297  0.709E-01
 30.307  0.734E-01
 30.317  0.761E-01
 30.327  0.772E-01
 30.337  0.774E-01
 30.347  0.774E-01
 30.357  0.774E-01
 30.367  0.774E-01
 30.377  0.775E-01
 30.387  0.776E-01
 30.397  0.778E-01
 30.407  0.781E-01
 30.417  0.784E-01
 30.427  0.789E-01
 30.437  0.794E-01
 30.447  0.801E-01
 30.457  0.808E-01
 30.467  0.815E-01
 30.477  0.821E-01
 30.487  0.828E-01
 30.497  0.833E-01
 30.507  0.838E-01
 30.517  0.841E-01
 30.527  0.845E-01
 30.537  0.850E-01
 30.547  0.854E-01
 30.557  0.858E-01
 30.567  0.862E-01
 30.577  0.866E-01
 30.587  0.871E-01
 30.597  0.875E-01
 30.607  0.878E-01
 30.617  0.883E-01
 30.627  0.886E-01
 30.637  0.888E-01
 30.647  0.890E-01
 30.657  0.890E-01
 30.667  0.890E-01
 30.677  0.889E-01
 30.687  0.886E-01
 30.697  0.883E-01
 30.707  0.877E-01
 30.717  0.871E-01
 30.727  0.864E-01
 30.737  0.853E-01
 30.747  0.840E-01
 30.757  0.825E-01
 30.767  0.808E-01
 30.777  0.789E-01
 30.787  0.768E-01
 30.797  0.745E-01
 30.807  0.721E-01
 30.817  0.694E-01
 30.827  0.668E-01
 30.837  0.652E-01
 30.847  0.637E-01
 30.857  0.623E-01
 30.867  0.611E-01
 30.877  0.600E-01
 30.887  0.590E-01
 30.897  0.583E-01
 30.907  0.577E-01
 30.917  0.573E-01
 30.927  0.568E-01
 30.937  0.564E-01
 30.947  0.561E-01
 30.957  0.558E-01
 30.967  0.554E-01
 30.977  0.551E-01
 30.987  0.547E-01
 30.997  0.543E-01
 31.007  0.540E-01
 31.017  0.537E-01
 31.027  0.534E-01
 31.037  0.530E-01
 31.047  0.526E-01
 31.057  0.523E-01
 31.067  0.519E-01
 31.077  0.516E-01
 31.087  0.512E-01
 31.097  0.509E-01
 31.107  0.505E-01
 31.117  0.501E-01
 31.127  0.498E-01
 31.137  0.495E-01
 31.147  0.492E-01
 31.157  0.489E-01
 31.167  0.487E-01
 31.177  0.485E-01
 31.187  0.482E-01
 31.197  0.480E-01
 31.207  0.478E-01
 31.217  0.476E-01
 31.227  0.474E-01
 31.237  0.472E-01
 31.247  0.470E-01
 31.257  0.469E-01
 31.267  0.468E-01
 31.277  0.465E-01
 31.287  0.462E-01
 31.297  0.458E-01
 31.307  0.454E-01
 31.317  0.451E-01
 31.327  0.449E-01
 31.337  0.446E-01
 31.347  0.443E-01
 31.357  0.441E-01
 31.367  0.439E-01
 31.377  0.436E-01
 31.387  0.433E-01
 31.397  0.434E-01
 31.407  0.435E-01
 31.417  0.436E-01
 31.427  0.436E-01
 31.437  0.437E-01
 31.447  0.439E-01
 31.457  0.440E-01
 31.467  0.441E-01
 31.477  0.444E-01
 31.487  0.445E-01
 31.497  0.448E-01
 31.507  0.450E-01
 31.517  0.454E-01
 31.527  0.456E-01
 31.537  0.459E-01
 31.547  0.461E-01
 31.557  0.462E-01
 31.567  0.464E-01
 31.577  0.466E-01
 31.587  0.468E-01
 31.597  0.469E-01
 31.607  0.471E-01
 31.617  0.472E-01
 31.627  0.474E-01
 31.637  0.477E-01
 31.647  0.479E-01
 31.657  0.482E-01
 31.667  0.483E-01
 31.677  0.485E-01
 31.687  0.486E-01
 31.697  0.487E-01
 31.707  0.489E-01
 31.717  0.490E-01
 31.727  0.490E-01
 31.737  0.490E-01
 31.747  0.491E-01
 31.757  0.492E-01
 31.767  0.493E-01
 31.777  0.493E-01
 31.787  0.494E-01
 31.797  0.495E-01
 31.807  0.496E-01
 31.817  0.497E-01
 31.827  0.497E-01
 31.837  0.498E-01
 31.847  0.499E-01
 31.857  0.499E-01
 31.867  0.501E-01
 31.877  0.501E-01
 31.887  0.502E-01
 31.897  0.502E-01
 31.907  0.503E-01
 31.917  0.503E-01
 31.927  0.503E-01
 31.937  0.504E-01
 31.947  0.504E-01
 31.957  0.505E-01
 31.967  0.506E-01
 31.977  0.510E-01
 31.987  0.514E-01
 31.997  0.517E-01
 32.007  0.519E-01
 32.017  0.520E-01
 32.027  0.523E-01
 32.037  0.525E-01
 32.047  0.526E-01
 32.057  0.527E-01
 32.067  0.527E-01
 32.077  0.528E-01
 32.087  0.528E-01
 32.097  0.529E-01
 32.107  0.529E-01
 32.117  0.528E-01
 32.127  0.526E-01
 32.137  0.524E-01
 32.147  0.521E-01
 32.157  0.516E-01
 32.167  0.508E-01
 32.177  0.509E-01
 32.187  0.509E-01
 32.197  0.508E-01
 32.207  0.507E-01
 32.217  0.507E-01
 32.227  0.506E-01
 32.237  0.505E-01
 32.247  0.502E-01
 32.257  0.499E-01
 32.267  0.496E-01
 32.277  0.493E-01
 32.287  0.490E-01
 32.297  0.486E-01
 32.307  0.483E-01
 32.317  0.479E-01
 32.327  0.476E-01
 32.337  0.471E-01
 32.347  0.467E-01
 32.357  0.462E-01
 32.367  0.458E-01
 32.377  0.453E-01
 32.387  0.449E-01
 32.397  0.444E-01
 32.407  0.439E-01
 32.417  0.434E-01
 32.427  0.430E-01
 32.437  0.424E-01
 32.447  0.420E-01
 32.457  0.414E-01
 32.467  0.408E-01
 32.477  0.404E-01
 32.487  0.403E-01
 32.497  0.398E-01
 32.507  0.393E-01
 32.517  0.388E-01
 32.527  0.384E-01
 32.537  0.380E-01
 32.547  0.375E-01
 32.557  0.370E-01
 32.567  0.366E-01
 32.577  0.361E-01
 32.587  0.356E-01
 32.597  0.350E-01
 32.607  0.345E-01
 32.617  0.341E-01
 32.627  0.337E-01
 32.637  0.333E-01
 32.647  0.330E-01
 32.657  0.329E-01
 32.667  0.326E-01
 32.677  0.324E-01
 32.687  0.323E-01
 32.697  0.322E-01
 32.707  0.322E-01
 32.717  0.321E-01
 32.727  0.322E-01
 32.737  0.323E-01
 32.747  0.324E-01
 32.757  0.325E-01
 32.767  0.328E-01
 32.777  0.330E-01
 32.787  0.333E-01
 32.797  0.337E-01
 32.807  0.340E-01
 32.817  0.345E-01
 32.827  0.353E-01
 32.837  0.364E-01
 32.847  0.375E-01
 32.857  0.386E-01
 32.867  0.397E-01
 32.877  0.408E-01
 32.887  0.418E-01
 32.897  0.432E-01
 32.907  0.447E-01
 32.917  0.463E-01
 32.927  0.480E-01
 32.937  0.497E-01
 32.947  0.515E-01
 32.957  0.521E-01
 32.967  0.528E-01
 32.977  0.534E-01
 32.987  0.539E-01
 32.997  0.545E-01
 33.007  0.550E-01
 33.017  0.555E-01
 33.027  0.558E-01
 33.037  0.562E-01
 33.047  0.563E-01
 33.057  0.566E-01
 33.067  0.567E-01
 33.077  0.569E-01
 33.087  0.570E-01
 33.097  0.565E-01
 33.107  0.559E-01
 33.117  0.553E-01
 33.127  0.550E-01
 33.137  0.545E-01
 33.147  0.541E-01
 33.157  0.538E-01
 33.167  0.535E-01
 33.177  0.532E-01
 33.187  0.530E-01
 33.197  0.529E-01
 33.207  0.528E-01
 33.217  0.527E-01
 33.227  0.526E-01
 33.237  0.526E-01
 33.247  0.522E-01
 33.257  0.520E-01
 33.267  0.517E-01
 33.277  0.515E-01
 33.287  0.513E-01
 33.297  0.512E-01
 33.307  0.515E-01
 33.317  0.529E-01
 33.327  0.531E-01
 33.337  0.523E-01
 33.347  0.516E-01
 33.357  0.510E-01
 33.367  0.504E-01
 33.377  0.499E-01
 33.387  0.495E-01
 33.397  0.492E-01
 33.407  0.490E-01
 33.417  0.487E-01
 33.427  0.489E-01
 33.437  0.492E-01
 33.447  0.494E-01
 33.457  0.497E-01
 33.467  0.497E-01
 33.477  0.497E-01
 33.487  0.496E-01
 33.497  0.495E-01
 33.507  0.494E-01
 33.517  0.492E-01
 33.527  0.490E-01
 33.537  0.488E-01
 33.547  0.488E-01
 33.557  0.488E-01
 33.567  0.488E-01
 33.577  0.488E-01
 33.587  0.489E-01
 33.597  0.489E-01
 33.607  0.488E-01
 33.617  0.487E-01
 33.627  0.485E-01
 33.637  0.484E-01
 33.647  0.482E-01
 33.657  0.481E-01
 33.667  0.479E-01
 33.677  0.479E-01
 33.687  0.480E-01
 33.697  0.490E-01
 33.707  0.496E-01
 33.717  0.495E-01
 33.727  0.485E-01
 33.737  0.471E-01
 33.747  0.457E-01
 33.757  0.443E-01
 33.767  0.430E-01
 33.777  0.418E-01
 33.787  0.411E-01
 33.797  0.408E-01
 33.807  0.406E-01
 33.817  0.404E-01
 33.827  0.404E-01
 33.837  0.406E-01
 33.847  0.408E-01
 33.857  0.415E-01
 33.867  0.419E-01
 33.877  0.424E-01
 33.887  0.428E-01
 33.897  0.431E-01
 33.907  0.435E-01
 33.917  0.438E-01
 33.927  0.440E-01
 33.937  0.443E-01
 33.947  0.446E-01
 33.957  0.450E-01
 33.967  0.456E-01
 33.977  0.460E-01
 33.987  0.465E-01
 33.997  0.471E-01
 34.007  0.477E-01
 34.017  0.480E-01
 34.027  0.482E-01
 34.037  0.482E-01
 34.047  0.483E-01
 34.057  0.482E-01
 34.067  0.481E-01
 34.077  0.480E-01
 34.087  0.478E-01
 34.097  0.476E-01
 34.107  0.474E-01
 34.117  0.470E-01
 34.127  0.467E-01
 34.137  0.464E-01
 34.147  0.461E-01
 34.157  0.458E-01
 34.167  0.454E-01
 34.177  0.450E-01
 34.187  0.447E-01
 34.197  0.441E-01
 34.207  0.438E-01
 34.217  0.435E-01
 34.227  0.435E-01
 34.237  0.436E-01
 34.247  0.438E-01
 34.257  0.434E-01
 34.267  0.432E-01
 34.277  0.429E-01
 34.287  0.426E-01
 34.297  0.421E-01
 34.307  0.416E-01
 34.317  0.410E-01
 34.327  0.404E-01
 34.337  0.397E-01
 34.347  0.392E-01
 34.357  0.387E-01
 34.367  0.380E-01
 34.377  0.373E-01
 34.387  0.366E-01
 34.397  0.358E-01
 34.407  0.349E-01
 34.417  0.342E-01
 34.427  0.333E-01
 34.437  0.326E-01
 34.447  0.318E-01
 34.457  0.311E-01
 34.467  0.303E-01
 34.477  0.296E-01
 34.487  0.290E-01
 34.497  0.282E-01
 34.507  0.275E-01
 34.517  0.268E-01
 34.527  0.262E-01
 34.537  0.248E-01
 34.547  0.240E-01
 34.557  0.233E-01
 34.567  0.226E-01
 34.577  0.221E-01
 34.587  0.217E-01
 34.597  0.213E-01
 34.607  0.209E-01
 34.617  0.207E-01
 34.627  0.204E-01
 34.637  0.202E-01
 34.647  0.200E-01
 34.657  0.198E-01
 34.667  0.196E-01
 34.677  0.194E-01
 34.687  0.192E-01
 34.697  0.191E-01
 34.707  0.190E-01
 34.717  0.188E-01
 34.727  0.187E-01
 34.737  0.186E-01
 34.747  0.185E-01
 34.757  0.186E-01
 34.767  0.185E-01
 34.777  0.184E-01
 34.787  0.185E-01
 34.797  0.184E-01
 34.807  0.184E-01
 34.817  0.184E-01
 34.827  0.184E-01
 34.837  0.185E-01
 34.847  0.187E-01
 34.857  0.186E-01
 34.867  0.186E-01
 34.877  0.184E-01
 34.887  0.181E-01
 34.897  0.175E-01
 34.907  0.170E-01
 34.917  0.166E-01
 34.927  0.161E-01
 34.937  0.157E-01
 34.947  0.154E-01
 34.957  0.152E-01
 34.967  0.149E-01
 34.977  0.148E-01
 34.987  0.146E-01
 34.997  0.145E-01
 35.007  0.144E-01
 35.017  0.144E-01
 35.027  0.143E-01
 35.037  0.143E-01
 35.047  0.143E-01
 35.057  0.143E-01
 35.067  0.144E-01
 35.077  0.144E-01
 35.087  0.145E-01
 35.097  0.145E-01
 35.107  0.145E-01
 35.117  0.145E-01
 35.127  0.145E-01
 35.137  0.147E-01
 35.147  0.147E-01
 35.157  0.147E-01
 35.167  0.146E-01
 35.177  0.146E-01
 35.187  0.146E-01
 35.197  0.146E-01
 35.207  0.146E-01
 35.217  0.145E-01
 35.227  0.145E-01
 35.237  0.145E-01
 35.247  0.146E-01
 35.257  0.146E-01
 35.267  0.147E-01
 35.277  0.147E-01
 35.287  0.149E-01
 35.297  0.149E-01
 35.307  0.150E-01
 35.317  0.150E-01
 35.327  0.151E-01
 35.337  0.152E-01
 35.347  0.153E-01
 35.357  0.154E-01
 35.367  0.155E-01
 35.377  0.155E-01
 35.387  0.156E-01
 35.397  0.156E-01
 35.407  0.158E-01
 35.417  0.158E-01
 35.427  0.158E-01
 35.437  0.159E-01
 35.447  0.159E-01
 35.457  0.161E-01
 35.467  0.161E-01
 35.477  0.162E-01
 35.487  0.162E-01
 35.497  0.164E-01
 35.507  0.167E-01
 35.517  0.172E-01
 35.527  0.180E-01
 35.537  0.188E-01
 35.547  0.198E-01
 35.557  0.210E-01
 35.567  0.223E-01
 35.577  0.230E-01
 35.587  0.230E-01
 35.597  0.224E-01
 35.607  0.215E-01
 35.617  0.207E-01
 35.627  0.202E-01
 35.637  0.199E-01
 35.647  0.196E-01
 35.657  0.195E-01
 35.667  0.196E-01
 35.677  0.202E-01
 35.687  0.216E-01
 35.697  0.227E-01
 35.707  0.235E-01
 35.717  0.240E-01
 35.727  0.243E-01
 35.737  0.243E-01
 35.747  0.238E-01
 35.757  0.234E-01
 35.767  0.232E-01
 35.777  0.230E-01
 35.787  0.223E-01
 35.797  0.218E-01
 35.807  0.214E-01
 35.817  0.211E-01
 35.827  0.207E-01
 35.837  0.205E-01
 35.847  0.204E-01
 35.857  0.204E-01
 35.867  0.205E-01
 35.877  0.206E-01
 35.887  0.209E-01
 35.897  0.212E-01
 35.907  0.213E-01
 35.917  0.215E-01
 35.927  0.215E-01
 35.937  0.215E-01
 35.947  0.214E-01
 35.957  0.212E-01
 35.967  0.209E-01
 35.977  0.208E-01
 35.987  0.205E-01
 35.997  0.204E-01
 36.007  0.201E-01
 36.017  0.200E-01
 36.027  0.197E-01
 36.037  0.195E-01
 36.047  0.193E-01
 36.057  0.190E-01
 36.067  0.188E-01
 36.077  0.185E-01
 36.087  0.182E-01
 36.097  0.180E-01
 36.107  0.177E-01
 36.117  0.174E-01
 36.127  0.172E-01
 36.137  0.169E-01
 36.147  0.166E-01
 36.157  0.164E-01
 36.167  0.161E-01
 36.177  0.160E-01
 36.187  0.156E-01
 36.197  0.152E-01
 36.207  0.150E-01
 36.217  0.148E-01
 36.227  0.147E-01
 36.237  0.145E-01
 36.247  0.144E-01
 36.257  0.143E-01
 36.267  0.142E-01
 36.277  0.141E-01
 36.287  0.139E-01
 36.297  0.138E-01
 36.307  0.137E-01
 36.317  0.136E-01
 36.327  0.135E-01
 36.337  0.133E-01
 36.347  0.133E-01
 36.357  0.132E-01
 36.367  0.132E-01
 36.377  0.131E-01
 36.387  0.131E-01
 36.397  0.130E-01
 36.407  0.129E-01
 36.417  0.128E-01
 36.427  0.128E-01
 36.437  0.127E-01
 36.447  0.127E-01
 36.457  0.126E-01
 36.467  0.125E-01
 36.477  0.124E-01
 36.487  0.124E-01
 36.497  0.123E-01
 36.507  0.123E-01
 36.517  0.123E-01
 36.527  0.121E-01
 36.537  0.121E-01
 36.547  0.121E-01
 36.557  0.120E-01
 36.567  0.120E-01
 36.577  0.119E-01
 36.587  0.119E-01
 36.597  0.119E-01
 36.607  0.119E-01
 36.617  0.118E-01
 36.627  0.118E-01
 36.637  0.117E-01
 36.647  0.117E-01
 36.657  0.116E-01
 36.667  0.116E-01
 36.677  0.115E-01
 36.687  0.115E-01
 36.697  0.115E-01
 36.707  0.115E-01
 36.717  0.115E-01
 36.727  0.115E-01
 36.737  0.115E-01
 36.747  0.116E-01
 36.757  0.116E-01
 36.767  0.117E-01
 36.777  0.117E-01
 36.787  0.118E-01
 36.797  0.119E-01
 36.807  0.120E-01
 36.817  0.121E-01
 36.827  0.122E-01
 36.837  0.123E-01
 36.847  0.124E-01
 36.857  0.126E-01
 36.867  0.127E-01
 36.877  0.130E-01
 36.887  0.131E-01
 36.897  0.133E-01
 36.907  0.135E-01
 36.917  0.136E-01
 36.927  0.138E-01
 36.937  0.141E-01
 36.947  0.144E-01
 36.957  0.146E-01
 36.967  0.148E-01
 36.977  0.150E-01
 36.987  0.153E-01
 36.997  0.157E-01
 37.007  0.160E-01
 37.017  0.164E-01
 37.027  0.170E-01
 37.037  0.175E-01
 37.047  0.181E-01
 37.057  0.189E-01
 37.067  0.196E-01
 37.077  0.202E-01
 37.087  0.215E-01
 37.097  0.223E-01
 37.107  0.223E-01
 37.117  0.222E-01
 37.127  0.221E-01
 37.137  0.220E-01
 37.147  0.219E-01
 37.157  0.218E-01
 37.167  0.217E-01
 37.177  0.215E-01
 37.187  0.214E-01
 37.197  0.214E-01
 37.207  0.213E-01
 37.217  0.212E-01
 37.227  0.210E-01
 37.237  0.209E-01
 37.247  0.210E-01
 37.257  0.209E-01
 37.267  0.209E-01
 37.277  0.209E-01
 37.287  0.210E-01
 37.297  0.212E-01
 37.307  0.213E-01
 37.317  0.214E-01
 37.327  0.215E-01
 37.337  0.218E-01
 37.347  0.219E-01
 37.357  0.221E-01
 37.367  0.222E-01
 37.377  0.224E-01
 37.387  0.226E-01
 37.397  0.229E-01
 37.407  0.230E-01
 37.417  0.232E-01
 37.427  0.234E-01
 37.437  0.236E-01
 37.447  0.239E-01
 37.457  0.241E-01
 37.467  0.243E-01
 37.477  0.245E-01
 37.487  0.248E-01
 37.497  0.250E-01
 37.507  0.253E-01
 37.517  0.256E-01
 37.527  0.260E-01
 37.537  0.267E-01
 37.547  0.273E-01
 37.557  0.276E-01
 37.567  0.277E-01
 37.577  0.276E-01
 37.587  0.272E-01
 37.597  0.268E-01
 37.607  0.264E-01
 37.617  0.263E-01
 37.627  0.261E-01
 37.637  0.260E-01
 37.647  0.259E-01
 37.657  0.257E-01
 37.667  0.255E-01
 37.677  0.254E-01
 37.687  0.254E-01
 37.697  0.253E-01
 37.707  0.252E-01
 37.717  0.251E-01
 37.727  0.251E-01
 37.737  0.251E-01
 37.747  0.251E-01
 37.757  0.251E-01
 37.767  0.251E-01
 37.777  0.252E-01
 37.787  0.252E-01
 37.797  0.252E-01
 37.807  0.253E-01
 37.817  0.253E-01
 37.827  0.254E-01
 37.837  0.254E-01
 37.847  0.254E-01
 37.857  0.254E-01
 37.867  0.254E-01
 37.877  0.254E-01
 37.887  0.254E-01
 37.897  0.254E-01
 37.907  0.254E-01
 37.917  0.254E-01
 37.927  0.253E-01
 37.937  0.253E-01
 37.947  0.252E-01
 37.957  0.251E-01
 37.967  0.249E-01
 37.977  0.249E-01
 37.987  0.248E-01
 37.997  0.248E-01
 38.007  0.248E-01
 38.017  0.248E-01
 38.027  0.248E-01
 38.037  0.249E-01
 38.047  0.250E-01
 38.057  0.251E-01
 38.067  0.251E-01
 38.077  0.251E-01
 38.087  0.252E-01
 38.097  0.253E-01
 38.107  0.253E-01
 38.117  0.253E-01
 38.127  0.253E-01
 38.137  0.254E-01
 38.147  0.254E-01
 38.157  0.254E-01
 38.167  0.254E-01
 38.177  0.255E-01
 38.187  0.255E-01
 38.197  0.255E-01
 38.207  0.255E-01
 38.217  0.256E-01
 38.227  0.258E-01
 38.237  0.262E-01
 38.247  0.265E-01
 38.257  0.259E-01
 38.267  0.256E-01
 38.277  0.255E-01
 38.287  0.255E-01
 38.297  0.254E-01
 38.307  0.254E-01
 38.317  0.254E-01
 38.327  0.253E-01
 38.337  0.254E-01
 38.347  0.253E-01
 38.357  0.252E-01
 38.367  0.252E-01
 38.377  0.251E-01
 38.387  0.251E-01
 38.397  0.250E-01
 38.407  0.249E-01
 38.417  0.249E-01
 38.427  0.248E-01
 38.437  0.247E-01
 38.447  0.247E-01
 38.457  0.247E-01
 38.467  0.246E-01
 38.477  0.247E-01
 38.487  0.246E-01
 38.497  0.246E-01
 38.507  0.246E-01
 38.517  0.246E-01
 38.527  0.245E-01
 38.537  0.245E-01
 38.547  0.245E-01
 38.557  0.245E-01
 38.567  0.246E-01
 38.577  0.246E-01
 38.587  0.246E-01
 38.597  0.247E-01
 38.607  0.248E-01
 38.617  0.247E-01
 38.627  0.248E-01
 38.637  0.248E-01
 38.647  0.248E-01
 38.657  0.248E-01
 38.667  0.248E-01
 38.677  0.248E-01
 38.687  0.248E-01
 38.697  0.249E-01
 38.707  0.250E-01
 38.717  0.250E-01
 38.727  0.250E-01
 38.737  0.250E-01
 38.747  0.250E-01
 38.757  0.251E-01
 38.767  0.252E-01
 38.777  0.252E-01
 38.787  0.252E-01
 38.797  0.252E-01
 38.807  0.252E-01
 38.817  0.252E-01
 38.827  0.253E-01
 38.837  0.253E-01
 38.847  0.250E-01
 38.857  0.246E-01
 38.867  0.241E-01
 38.877  0.235E-01
 38.887  0.228E-01
 38.897  0.221E-01
 38.907  0.217E-01
 38.917  0.214E-01
 38.927  0.212E-01
 38.937  0.208E-01
 38.947  0.206E-01
 38.957  0.203E-01
 38.967  0.201E-01
 38.977  0.198E-01
 38.987  0.196E-01
 38.997  0.193E-01
 39.007  0.192E-01
 39.017  0.190E-01
 39.027  0.187E-01
 39.037  0.186E-01
 39.047  0.183E-01
 39.057  0.182E-01
 39.067  0.181E-01
 39.077  0.179E-01
 39.087  0.177E-01
 39.097  0.176E-01
 39.107  0.175E-01
 39.117  0.173E-01
 39.127  0.172E-01
 39.137  0.171E-01
 39.147  0.170E-01
 39.157  0.169E-01
 39.167  0.167E-01
 39.177  0.166E-01
 39.187  0.165E-01
 39.197  0.165E-01
 39.207  0.164E-01
 39.217  0.162E-01
 39.227  0.161E-01
 39.237  0.160E-01
 39.247  0.160E-01
 39.257  0.159E-01
 39.267  0.158E-01
 39.277  0.157E-01
 39.287  0.156E-01
 39.297  0.155E-01
 39.307  0.155E-01
 39.317  0.154E-01
 39.327  0.153E-01
 39.337  0.153E-01
 39.347  0.152E-01
 39.357  0.150E-01
 39.367  0.149E-01
 39.377  0.149E-01
 39.387  0.148E-01
 39.397  0.147E-01
 39.407  0.147E-01
 39.417  0.146E-01
 39.427  0.146E-01
 39.437  0.145E-01
 39.447  0.145E-01
 39.457  0.143E-01
 39.467  0.143E-01
 39.477  0.143E-01
 39.487  0.142E-01
 39.497  0.142E-01
 39.507  0.141E-01
 39.517  0.141E-01
 39.527  0.140E-01
 39.537  0.140E-01
 39.547  0.139E-01
 39.557  0.139E-01
 39.567  0.138E-01
 39.577  0.138E-01
 39.587  0.138E-01
 39.597  0.137E-01
 39.607  0.136E-01
 39.617  0.136E-01
 39.627  0.136E-01
 39.637  0.135E-01
 39.647  0.135E-01
 39.657  0.134E-01
 39.667  0.134E-01
 39.677  0.134E-01
 39.687  0.135E-01
 39.697  0.135E-01
 39.707  0.135E-01
 39.717  0.136E-01
 39.727  0.136E-01
 39.737  0.137E-01
 39.747  0.139E-01
 39.757  0.144E-01
 39.767  0.147E-01
 39.777  0.150E-01
 39.787  0.153E-01
 39.797  0.155E-01
 39.807  0.158E-01
 39.817  0.160E-01
 39.827  0.162E-01
 39.837  0.164E-01
 39.847  0.164E-01
 39.857  0.163E-01
 39.867  0.162E-01
 39.877  0.161E-01
 39.887  0.161E-01
 39.897  0.160E-01
 39.907  0.160E-01
 39.917  0.159E-01
 39.927  0.160E-01
 39.937  0.160E-01
 39.947  0.160E-01
 39.957  0.160E-01
 39.967  0.160E-01
 39.977  0.160E-01
 39.987  0.160E-01
 39.997  0.160E-01
 40.007  0.160E-01
 40.017  0.161E-01
 40.027  0.161E-01
 40.037  0.161E-01
 40.047  0.161E-01
 40.057  0.161E-01
 40.067  0.161E-01
 40.077  0.161E-01
 40.087  0.161E-01
 40.097  0.161E-01
 40.107  0.161E-01
 40.117  0.162E-01
 40.127  0.163E-01
 40.137  0.163E-01
 40.147  0.164E-01
 40.157  0.165E-01
 40.167  0.165E-01
 40.177  0.166E-01
 40.187  0.167E-01
 40.197  0.168E-01
 40.207  0.168E-01
 40.217  0.169E-01
 40.227  0.170E-01
 40.237  0.171E-01
 40.247  0.171E-01
 40.257  0.172E-01
 40.267  0.173E-01
 40.277  0.174E-01
 40.287  0.174E-01
 40.297  0.174E-01
 40.307  0.173E-01
 40.317  0.169E-01
 40.327  0.165E-01
 40.337  0.163E-01
 40.347  0.162E-01
 40.357  0.161E-01
 40.367  0.161E-01
 40.377  0.161E-01
 40.387  0.161E-01
 40.397  0.161E-01
 40.407  0.161E-01
 40.417  0.160E-01
 40.427  0.160E-01
 40.437  0.160E-01
 40.447  0.159E-01
 40.457  0.159E-01
 40.467  0.159E-01
 40.477  0.159E-01
 40.487  0.159E-01
 40.497  0.159E-01
 40.507  0.159E-01
 40.517  0.159E-01
 40.527  0.158E-01
 40.537  0.158E-01
 40.547  0.158E-01
 40.557  0.158E-01
 40.567  0.157E-01
 40.577  0.156E-01
 40.587  0.156E-01
 40.597  0.156E-01
 40.607  0.156E-01
 40.617  0.156E-01
 40.627  0.155E-01
 40.637  0.155E-01
 40.647  0.155E-01
 40.657  0.155E-01
 40.667  0.155E-01
 40.677  0.155E-01
 40.687  0.155E-01
 40.697  0.155E-01
 40.707  0.155E-01
 40.717  0.155E-01
 40.727  0.154E-01
 40.737  0.154E-01
 40.747  0.154E-01
 40.757  0.154E-01
 40.767  0.154E-01
 40.777  0.154E-01
 40.787  0.154E-01
 40.797  0.154E-01
 40.807  0.154E-01
 40.817  0.154E-01
 40.827  0.155E-01
 40.837  0.155E-01
 40.847  0.156E-01
 40.857  0.156E-01
 40.867  0.157E-01
 40.877  0.157E-01
 40.887  0.158E-01
 40.897  0.158E-01
 40.907  0.159E-01
 40.917  0.159E-01
 40.927  0.160E-01
 40.937  0.160E-01
 40.947  0.161E-01
 40.957  0.161E-01
 40.967  0.161E-01
 40.977  0.162E-01
 40.987  0.162E-01
 40.997  0.161E-01
 41.007  0.162E-01
 41.017  0.162E-01
 41.027  0.163E-01
 41.037  0.163E-01
 41.047  0.163E-01
 41.057  0.164E-01
 41.067  0.165E-01
 41.077  0.165E-01
 41.087  0.166E-01
 41.097  0.168E-01
 41.107  0.169E-01
 41.117  0.170E-01
 41.127  0.171E-01
 41.137  0.172E-01
 41.147  0.173E-01
 41.157  0.174E-01
 41.167  0.175E-01
 41.177  0.176E-01
 41.187  0.177E-01
 41.197  0.179E-01
 41.207  0.180E-01
 41.217  0.180E-01
 41.227  0.181E-01
 41.237  0.181E-01
 41.247  0.182E-01
 41.257  0.181E-01
 41.267  0.179E-01
 41.277  0.177E-01
 41.287  0.177E-01
 41.297  0.177E-01
 41.307  0.177E-01
 41.317  0.177E-01
 41.327  0.176E-01
 41.337  0.176E-01
 41.347  0.175E-01
 41.357  0.175E-01
 41.367  0.174E-01
 41.377  0.173E-01
 41.387  0.173E-01
 41.397  0.172E-01
 41.407  0.171E-01
 41.417  0.171E-01
 41.427  0.170E-01
 41.437  0.170E-01
 41.447  0.169E-01
 41.457  0.169E-01
 41.467  0.169E-01
 41.477  0.168E-01
 41.487  0.168E-01
 41.497  0.168E-01
 41.507  0.173E-01
 41.517  0.175E-01
 41.527  0.173E-01
 41.537  0.172E-01
 41.547  0.171E-01
 41.557  0.172E-01
 41.567  0.173E-01
 41.577  0.175E-01
 41.587  0.177E-01
 41.597  0.179E-01
 41.607  0.181E-01
 41.617  0.183E-01
 41.627  0.185E-01
 41.637  0.187E-01
 41.647  0.190E-01
 41.657  0.192E-01
 41.667  0.194E-01
 41.677  0.196E-01
 41.687  0.199E-01
 41.697  0.199E-01
 41.707  0.198E-01
 41.717  0.198E-01
 41.727  0.196E-01
 41.737  0.195E-01
 41.747  0.192E-01
 41.757  0.192E-01
 41.767  0.191E-01
 41.777  0.190E-01
 41.787  0.189E-01
 41.797  0.188E-01
 41.807  0.187E-01
 41.817  0.186E-01
 41.827  0.185E-01
 41.837  0.184E-01
 41.847  0.184E-01
 41.857  0.183E-01
 41.867  0.183E-01
 41.877  0.183E-01
 41.887  0.183E-01
 41.897  0.181E-01
 41.907  0.180E-01
 41.917  0.180E-01
 41.927  0.180E-01
 41.937  0.181E-01
 41.947  0.181E-01
 41.957  0.181E-01
 41.967  0.182E-01
 41.977  0.182E-01
 41.987  0.183E-01
 41.997  0.183E-01
 42.007  0.184E-01
 42.017  0.184E-01
 42.027  0.184E-01
 42.037  0.185E-01
 42.047  0.185E-01
 42.057  0.185E-01
 42.067  0.186E-01
 42.077  0.186E-01
 42.087  0.186E-01
 42.097  0.186E-01
 42.107  0.187E-01
 42.117  0.187E-01
 42.127  0.187E-01
 42.137  0.188E-01
 42.147  0.188E-01
 42.157  0.189E-01
 42.167  0.189E-01
 42.177  0.189E-01
 42.187  0.190E-01
 42.197  0.190E-01
 42.207  0.191E-01
 42.217  0.191E-01
 42.227  0.192E-01
 42.237  0.194E-01
 42.247  0.194E-01
 42.257  0.195E-01
 42.267  0.196E-01
 42.277  0.197E-01
 42.287  0.198E-01
 42.297  0.199E-01
 42.307  0.199E-01
 42.317  0.199E-01
 42.327  0.198E-01
 42.337  0.198E-01
 42.347  0.197E-01
 42.357  0.196E-01
 42.367  0.195E-01
 42.377  0.194E-01
 42.387  0.194E-01
 42.397  0.192E-01
 42.407  0.191E-01
 42.417  0.189E-01
 42.427  0.187E-01
 42.437  0.186E-01
 42.447  0.184E-01
 42.457  0.183E-01
 42.467  0.181E-01
 42.477  0.180E-01
 42.487  0.178E-01
 42.497  0.176E-01
 42.507  0.175E-01
 42.517  0.173E-01
 42.527  0.173E-01
 42.537  0.173E-01
 42.547  0.173E-01
 42.557  0.174E-01
 42.567  0.176E-01
 42.577  0.179E-01
 42.587  0.181E-01
 42.597  0.185E-01
 42.607  0.188E-01
 42.617  0.191E-01
 42.627  0.193E-01
 42.637  0.195E-01
 42.647  0.197E-01
 42.657  0.199E-01
 42.667  0.201E-01
 42.677  0.203E-01
 42.687  0.204E-01
 42.697  0.205E-01
 42.707  0.206E-01
 42.717  0.206E-01
 42.727  0.207E-01
 42.737  0.206E-01
 42.747  0.206E-01
 42.757  0.205E-01
 42.767  0.205E-01
 42.777  0.206E-01
 42.787  0.206E-01
 42.797  0.208E-01
 42.807  0.211E-01
 42.817  0.215E-01
 42.827  0.219E-01
 42.837  0.225E-01
 42.847  0.232E-01
 42.857  0.240E-01
 42.867  0.251E-01
 42.877  0.263E-01
 42.887  0.196E-01
 42.897  0.153E-01
 42.907  0.145E-01
 42.917  0.147E-01
 42.927  0.150E-01
 42.937  0.152E-01
 42.947  0.150E-01
 42.957  0.149E-01
 42.967  0.150E-01
 42.977  0.153E-01
 42.987  0.152E-01
 42.997  0.151E-01
 43.007  0.150E-01
 43.017  0.148E-01
 43.027  0.145E-01
 43.037  0.144E-01
 43.047  0.142E-01
 43.057  0.142E-01
 43.067  0.141E-01
 43.077  0.140E-01
 43.087  0.140E-01
 43.097  0.139E-01
 43.107  0.139E-01
 43.117  0.139E-01
 43.127  0.139E-01
 43.137  0.138E-01
 43.147  0.138E-01
 43.157  0.137E-01
 43.167  0.137E-01
 43.177  0.137E-01
 43.187  0.137E-01
 43.197  0.137E-01
 43.207  0.137E-01
 43.217  0.137E-01
 43.227  0.137E-01
 43.237  0.137E-01
 43.247  0.136E-01
 43.257  0.133E-01
 43.267  0.130E-01
 43.277  0.129E-01
 43.287  0.128E-01
 43.297  0.127E-01
 43.307  0.127E-01
 43.317  0.126E-01
 43.327  0.126E-01
 43.337  0.125E-01
 43.347  0.123E-01
 43.357  0.123E-01
 43.367  0.122E-01
 43.377  0.122E-01
 43.387  0.121E-01
 43.397  0.120E-01
 43.407  0.119E-01
 43.417  0.118E-01
 43.427  0.117E-01
 43.437  0.115E-01
 43.447  0.113E-01
 43.457  0.111E-01
 43.467  0.109E-01
 43.477  0.107E-01
 43.487  0.106E-01
 43.497  0.104E-01
 43.507  0.103E-01
 43.517  0.102E-01
 43.527  0.101E-01
 43.537  0.996E-02
 43.547  0.984E-02
 43.557  0.971E-02
 43.567  0.960E-02
 43.577  0.947E-02
 43.587  0.935E-02
 43.597  0.922E-02
 43.607  0.910E-02
 43.617  0.897E-02
 43.627  0.885E-02
 43.637  0.873E-02
 43.647  0.860E-02
 43.657  0.847E-02
 43.667  0.833E-02
 43.677  0.817E-02
 43.687  0.798E-02
 43.697  0.778E-02
 43.707  0.759E-02
 43.717  0.737E-02
 43.727  0.714E-02
 43.737  0.690E-02
 43.747  0.666E-02
 43.757  0.644E-02
 43.767  0.643E-02
 43.777  0.623E-02
 43.787  0.601E-02
 43.797  0.582E-02
 43.807  0.562E-02
 43.817  0.543E-02
 43.827  0.525E-02
 43.837  0.506E-02
 43.847  0.488E-02
 43.857  0.472E-02
 43.867  0.456E-02
 43.877  0.442E-02
 43.887  0.428E-02
 43.897  0.415E-02
 43.907  0.400E-02
 43.917  0.386E-02
 43.927  0.372E-02
 43.937  0.360E-02
 43.947  0.348E-02
 43.957  0.339E-02
 43.967  0.331E-02
 43.977  0.324E-02
 43.987  0.319E-02
 43.997  0.314E-02
 44.007  0.310E-02
 44.017  0.305E-02
 44.027  0.302E-02
 44.037  0.298E-02
 44.047  0.295E-02
 44.057  0.291E-02
 44.067  0.289E-02
 44.077  0.286E-02
 44.087  0.284E-02
 44.097  0.281E-02
 44.107  0.279E-02
 44.117  0.276E-02
 44.127  0.273E-02
 44.137  0.270E-02
 44.147  0.268E-02
 44.157  0.266E-02
 44.167  0.264E-02
 44.177  0.262E-02
 44.187  0.260E-02
 44.197  0.259E-02
 44.207  0.258E-02
 44.217  0.257E-02
 44.227  0.255E-02
 44.237  0.255E-02
 44.247  0.254E-02
 44.257  0.254E-02
 44.267  0.253E-02
 44.277  0.252E-02
 44.287  0.252E-02
 44.297  0.252E-02
 44.307  0.252E-02
 44.317  0.252E-02
 44.327  0.252E-02
 44.337  0.252E-02
 44.347  0.252E-02
 44.357  0.253E-02
 44.367  0.254E-02
 44.377  0.260E-02
 44.387  0.260E-02
 44.397  0.259E-02
 44.407  0.258E-02
 44.417  0.258E-02
 44.427  0.257E-02
 44.437  0.256E-02
 44.447  0.255E-02
 44.457  0.253E-02
 44.467  0.250E-02
 44.477  0.247E-02
 44.487  0.244E-02
 44.497  0.240E-02
 44.507  0.236E-02
 44.517  0.231E-02
 44.527  0.228E-02
 44.537  0.225E-02
 44.547  0.223E-02
 44.557  0.221E-02
 44.567  0.219E-02
 44.577  0.217E-02
 44.587  0.215E-02
 44.597  0.213E-02
 44.607  0.212E-02
 44.617  0.211E-02
 44.627  0.209E-02
 44.637  0.208E-02
 44.647  0.208E-02
 44.657  0.208E-02
 44.667  0.208E-02
 44.677  0.208E-02
 44.687  0.209E-02
 44.697  0.209E-02
 44.707  0.210E-02
 44.717  0.210E-02
 44.727  0.212E-02
 44.737  0.214E-02
 44.747  0.217E-02
 44.757  0.220E-02
 44.767  0.225E-02
 44.777  0.232E-02
 44.787  0.239E-02
 44.797  0.247E-02
 44.807  0.256E-02
 44.817  0.267E-02
 44.827  0.279E-02
 44.837  0.283E-02
 44.847  0.276E-02
 44.857  0.272E-02
 44.867  0.270E-02
 44.877  0.270E-02
 44.887  0.271E-02
 44.897  0.273E-02
 44.907  0.275E-02
 44.917  0.278E-02
 44.927  0.281E-02
 44.937  0.285E-02
 44.947  0.288E-02
 44.957  0.291E-02
 44.967  0.294E-02
 44.977  0.297E-02
 44.987  0.302E-02
 44.997  0.305E-02
 45.007  0.309E-02
 45.017  0.312E-02
 45.027  0.317E-02
 45.037  0.320E-02
 45.047  0.324E-02
 45.057  0.327E-02
 45.067  0.331E-02
 45.077  0.335E-02
 45.087  0.338E-02
 45.097  0.342E-02
 45.107  0.346E-02
 45.117  0.350E-02
 45.127  0.353E-02
 45.137  0.355E-02
 45.147  0.358E-02
 45.157  0.361E-02
 45.167  0.363E-02
 45.177  0.366E-02
 45.187  0.370E-02
 45.197  0.373E-02
 45.207  0.376E-02
 45.217  0.380E-02
 45.227  0.383E-02
 45.237  0.386E-02
 45.247  0.390E-02
 45.257  0.393E-02
 45.267  0.396E-02
 45.277  0.400E-02
 45.287  0.405E-02
 45.297  0.409E-02
 45.307  0.412E-02
 45.317  0.416E-02
 45.327  0.421E-02
 45.337  0.425E-02
 45.347  0.428E-02
 45.357  0.433E-02
 45.367  0.436E-02
 45.377  0.440E-02
 45.387  0.444E-02
 45.397  0.448E-02
 45.407  0.452E-02
 45.417  0.457E-02
 45.427  0.461E-02
 45.437  0.465E-02
 45.447  0.471E-02
 45.457  0.476E-02
 45.467  0.483E-02
 45.477  0.489E-02
 45.487  0.496E-02
 45.497  0.502E-02
 45.507  0.510E-02
 45.517  0.518E-02
 45.527  0.524E-02
 45.537  0.533E-02
 45.547  0.540E-02
 45.557  0.559E-02
 45.567  0.581E-02
 45.577  0.601E-02
 45.587  0.617E-02
 45.597  0.630E-02
 45.607  0.641E-02
 45.617  0.649E-02
 45.627  0.647E-02
 45.637  0.642E-02
 45.647  0.637E-02
 45.657  0.639E-02
 45.667  0.643E-02
 45.677  0.647E-02
 45.687  0.655E-02
 45.697  0.663E-02
 45.707  0.674E-02
 45.717  0.685E-02
 45.727  0.694E-02
 45.737  0.704E-02
 45.747  0.713E-02
 45.757  0.721E-02
 45.767  0.728E-02
 45.777  0.735E-02
 45.787  0.740E-02
 45.797  0.744E-02
 45.807  0.748E-02
 45.817  0.754E-02
 45.827  0.759E-02
 45.837  0.764E-02
 45.847  0.766E-02
 45.857  0.766E-02
 45.867  0.766E-02
 45.877  0.771E-02
 45.887  0.775E-02
 45.897  0.780E-02
 45.907  0.785E-02
 45.917  0.789E-02
 45.927  0.791E-02
 45.937  0.794E-02
 45.947  0.795E-02
 45.957  0.797E-02
 45.967  0.797E-02
 45.977  0.797E-02
 45.987  0.795E-02
 45.997  0.793E-02
 46.007  0.792E-02
 46.017  0.788E-02
 46.027  0.785E-02
 46.037  0.780E-02
 46.047  0.775E-02
 46.057  0.773E-02
 46.067  0.762E-02
 46.077  0.748E-02
 46.087  0.739E-02
 46.097  0.732E-02
 46.107  0.726E-02
 46.117  0.718E-02
 46.127  0.712E-02
 46.137  0.705E-02
 46.147  0.699E-02
 46.157  0.692E-02
 46.167  0.685E-02
 46.177  0.679E-02
 46.187  0.673E-02
 46.197  0.667E-02
 46.207  0.660E-02
 46.217  0.654E-02
 46.227  0.648E-02
 46.237  0.646E-02
 46.247  0.648E-02
 46.257  0.649E-02
 46.267  0.650E-02
 46.277  0.648E-02
 46.287  0.643E-02
 46.297  0.635E-02
 46.307  0.624E-02
 46.317  0.612E-02
 46.327  0.601E-02
 46.337  0.591E-02
 46.347  0.580E-02
 46.357  0.570E-02
 46.367  0.561E-02
 46.377  0.551E-02
 46.387  0.540E-02
 46.397  0.533E-02
 46.407  0.525E-02
 46.417  0.518E-02
 46.427  0.510E-02
 46.437  0.503E-02
 46.447  0.495E-02
 46.457  0.488E-02
 46.467  0.481E-02
 46.477  0.474E-02
 46.487  0.469E-02
 46.497  0.464E-02
 46.507  0.458E-02
 46.517  0.454E-02
 46.527  0.450E-02
 46.537  0.445E-02
 46.547  0.441E-02
 46.557  0.437E-02
 46.567  0.432E-02
 46.577  0.429E-02
 46.587  0.425E-02
 46.597  0.422E-02
 46.607  0.417E-02
 46.617  0.414E-02
 46.627  0.411E-02
 46.637  0.408E-02
 46.647  0.405E-02
 46.657  0.402E-02
 46.667  0.398E-02
 46.677  0.395E-02
 46.687  0.393E-02
 46.697  0.390E-02
 46.707  0.387E-02
 46.717  0.384E-02
 46.727  0.381E-02
 46.737  0.379E-02
 46.747  0.376E-02
 46.757  0.373E-02
 46.767  0.371E-02
 46.777  0.368E-02
 46.787  0.365E-02
 46.797  0.361E-02
 46.807  0.359E-02
 46.817  0.356E-02
 46.827  0.354E-02
 46.837  0.352E-02
 46.847  0.350E-02
 46.857  0.348E-02
 46.867  0.345E-02
 46.877  0.343E-02
 46.887  0.341E-02
 46.897  0.339E-02
 46.907  0.337E-02
 46.917  0.335E-02
 46.927  0.333E-02
 46.937  0.331E-02
 46.947  0.330E-02
 46.957  0.328E-02
 46.967  0.326E-02
 46.977  0.325E-02
 46.987  0.323E-02
 46.997  0.322E-02
 47.007  0.321E-02
 47.017  0.320E-02
 47.027  0.319E-02
 47.037  0.318E-02
 47.047  0.318E-02
 47.057  0.316E-02
 47.067  0.316E-02
 47.077  0.315E-02
 47.087  0.315E-02
 47.097  0.315E-02
 47.107  0.315E-02
 47.117  0.314E-02
 47.127  0.314E-02
 47.137  0.314E-02
 47.147  0.314E-02
 47.157  0.314E-02
 47.167  0.315E-02
 47.177  0.315E-02
 47.187  0.315E-02
 47.197  0.316E-02
 47.207  0.317E-02
 47.217  0.317E-02
 47.227  0.318E-02
 47.237  0.319E-02
 47.247  0.320E-02
 47.257  0.323E-02
 47.267  0.325E-02
 47.277  0.327E-02
 47.287  0.330E-02
 47.297  0.333E-02
 47.307  0.335E-02
 47.317  0.337E-02
 47.327  0.333E-02
 47.337  0.326E-02
 47.347  0.326E-02
 47.357  0.326E-02
 47.367  0.326E-02
 47.377  0.326E-02
 47.387  0.325E-02
 47.397  0.325E-02
 47.407  0.324E-02
 47.417  0.323E-02
 47.427  0.322E-02
 47.437  0.320E-02
 47.447  0.319E-02
 47.457  0.317E-02
 47.467  0.316E-02
 47.477  0.314E-02
 47.487  0.312E-02
 47.497  0.310E-02
 47.507  0.307E-02
 47.517  0.305E-02
 47.527  0.304E-02
 47.537  0.303E-02
 47.547  0.303E-02
 47.557  0.302E-02
 47.567  0.302E-02
 47.577  0.302E-02
 47.587  0.303E-02
 47.597  0.303E-02
 47.607  0.303E-02
 47.617  0.304E-02
 47.627  0.305E-02
 47.637  0.306E-02
 47.647  0.307E-02
 47.657  0.308E-02
 47.667  0.309E-02
 47.677  0.310E-02
 47.687  0.311E-02
 47.697  0.312E-02
 47.707  0.312E-02
 47.717  0.313E-02
 47.727  0.314E-02
 47.737  0.314E-02
 47.747  0.314E-02
 47.757  0.313E-02
 47.767  0.313E-02
 47.777  0.315E-02
 47.787  0.316E-02
 47.797  0.317E-02
 47.807  0.319E-02
 47.817  0.320E-02
 47.827  0.323E-02
 47.837  0.324E-02
 47.847  0.324E-02
 47.857  0.326E-02
 47.867  0.328E-02
 47.877  0.330E-02
 47.887  0.331E-02
 47.897  0.334E-02
 47.907  0.336E-02
 47.917  0.338E-02
 47.927  0.339E-02
 47.937  0.341E-02
 47.947  0.344E-02
 47.957  0.346E-02
 47.967  0.349E-02
 47.977  0.351E-02
 47.987  0.353E-02
 47.997  0.355E-02
 48.007  0.357E-02
 48.017  0.358E-02
 48.027  0.360E-02
 48.037  0.361E-02
 48.047  0.363E-02
 48.057  0.364E-02
 48.067  0.366E-02
 48.077  0.368E-02
 48.087  0.369E-02
 48.097  0.371E-02
 48.107  0.373E-02
 48.117  0.374E-02
 48.127  0.375E-02
 48.137  0.377E-02
 48.147  0.379E-02
 48.157  0.381E-02
 48.167  0.382E-02
 48.177  0.384E-02
 48.187  0.386E-02
 48.197  0.388E-02
 48.207  0.390E-02
 48.217  0.393E-02
 48.227  0.393E-02
 48.237  0.386E-02
 48.247  0.376E-02
 48.257  0.369E-02
 48.267  0.364E-02
 48.277  0.362E-02
 48.287  0.364E-02
 48.297  0.366E-02
 48.307  0.368E-02
 48.317  0.369E-02
 48.327  0.370E-02
 48.337  0.371E-02
 48.347  0.372E-02
 48.357  0.372E-02
 48.367  0.372E-02
 48.377  0.371E-02
 48.387  0.371E-02
 48.397  0.369E-02
 48.407  0.368E-02
 48.417  0.366E-02
 48.427  0.365E-02
 48.437  0.363E-02
 48.447  0.362E-02
 48.457  0.360E-02
 48.467  0.358E-02
 48.477  0.356E-02
 48.487  0.353E-02
 48.497  0.351E-02
 48.507  0.348E-02
 48.517  0.344E-02
 48.527  0.340E-02
 48.537  0.337E-02
 48.547  0.333E-02
 48.557  0.329E-02
 48.567  0.325E-02
 48.577  0.320E-02
 48.587  0.316E-02
 48.597  0.311E-02
 48.607  0.306E-02
 48.617  0.302E-02
 48.627  0.297E-02
 48.637  0.292E-02
 48.647  0.288E-02
 48.657  0.284E-02
 48.667  0.280E-02
 48.677  0.277E-02
 48.687  0.274E-02
 48.697  0.271E-02
 48.707  0.268E-02
 48.717  0.265E-02
 48.727  0.264E-02
 48.737  0.261E-02
 48.747  0.259E-02
 48.757  0.257E-02
 48.767  0.256E-02
 48.777  0.254E-02
 48.787  0.252E-02
 48.797  0.250E-02
 48.807  0.249E-02
 48.817  0.247E-02
 48.827  0.246E-02
 48.837  0.244E-02
 48.847  0.243E-02
 48.857  0.242E-02
 48.867  0.240E-02
 48.877  0.240E-02
 48.887  0.237E-02
 48.897  0.237E-02
 48.907  0.236E-02
 48.917  0.235E-02
 48.927  0.234E-02
 48.937  0.233E-02
 48.947  0.232E-02
 48.957  0.231E-02
 48.967  0.230E-02
 48.977  0.229E-02
 48.987  0.228E-02
 48.997  0.227E-02
 49.007  0.227E-02
 49.017  0.226E-02
 49.027  0.226E-02
 49.037  0.225E-02
 49.047  0.225E-02
 49.057  0.224E-02
 49.067  0.224E-02
 49.077  0.224E-02
 49.087  0.223E-02
 49.097  0.223E-02
 49.107  0.223E-02
 49.117  0.223E-02
 49.127  0.223E-02
 49.137  0.223E-02
 49.147  0.223E-02
 49.157  0.223E-02
 49.167  0.222E-02
 49.177  0.222E-02
 49.187  0.222E-02
 49.197  0.221E-02
 49.207  0.221E-02
 49.217  0.220E-02
 49.227  0.219E-02
 49.237  0.219E-02
 49.247  0.218E-02
 49.257  0.216E-02
 49.267  0.215E-02
 49.277  0.214E-02
 49.287  0.212E-02
 49.297  0.211E-02
 49.307  0.210E-02
 49.317  0.210E-02
 49.327  0.210E-02
 49.337  0.209E-02
 49.347  0.207E-02
 49.357  0.205E-02
 49.367  0.204E-02
 49.377  0.204E-02
 49.387  0.203E-02
 49.397  0.203E-02
 49.407  0.204E-02
 49.417  0.205E-02
 49.427  0.206E-02
 49.437  0.207E-02
 49.447  0.207E-02
 49.457  0.207E-02
 49.467  0.207E-02
 49.477  0.208E-02
 49.487  0.212E-02
 49.497  0.230E-02
 49.507  0.236E-02
 49.517  0.232E-02
 49.527  0.228E-02
 49.537  0.224E-02
 49.547  0.220E-02
 49.557  0.217E-02
 49.567  0.215E-02
 49.577  0.213E-02
 49.587  0.211E-02
 49.597  0.210E-02
 49.607  0.210E-02
 49.617  0.209E-02
 49.627  0.210E-02
 49.637  0.209E-02
 49.647  0.207E-02
 49.657  0.207E-02
 49.667  0.207E-02
 49.677  0.206E-02
 49.687  0.206E-02
 49.697  0.206E-02
 49.707  0.206E-02
 49.717  0.206E-02
 49.727  0.206E-02
 49.737  0.207E-02
 49.747  0.207E-02
 49.757  0.207E-02
 49.767  0.208E-02
 49.777  0.208E-02
 49.787  0.208E-02
 49.797  0.209E-02
 49.807  0.209E-02
 49.817  0.209E-02
 49.827  0.209E-02
 49.837  0.209E-02
 49.847  0.209E-02
 49.857  0.209E-02
 49.867  0.209E-02
 49.877  0.209E-02
 49.887  0.209E-02
 49.897  0.210E-02
 49.907  0.210E-02
 49.917  0.210E-02
 49.927  0.210E-02
 49.937  0.210E-02
 49.947  0.211E-02
 49.957  0.211E-02
 49.967  0.212E-02
 49.977  0.212E-02
 49.987  0.213E-02
 49.997  0.213E-02
 50.007  0.215E-02
 50.017  0.215E-02
 50.027  0.216E-02
 50.037  0.217E-02
 50.047  0.218E-02
 50.057  0.219E-02
 50.067  0.219E-02
 50.077  0.220E-02
 50.087  0.221E-02
 50.097  0.222E-02
 50.107  0.223E-02
 50.117  0.224E-02
 50.127  0.225E-02
 50.137  0.225E-02
 50.147  0.227E-02
 50.157  0.228E-02
 50.167  0.230E-02
 50.177  0.232E-02
 50.187  0.235E-02
 50.197  0.238E-02
 50.207  0.241E-02
 50.217  0.244E-02
 50.227  0.248E-02
 50.237  0.253E-02
 50.247  0.260E-02
 50.257  0.268E-02
 50.267  0.278E-02
 50.277  0.283E-02
 50.287  0.286E-02
 50.297  0.289E-02
 50.307  0.292E-02
 50.317  0.296E-02
 50.327  0.301E-02
 50.337  0.309E-02
 50.347  0.321E-02
 50.357  0.338E-02
 50.367  0.345E-02
 50.377  0.346E-02
 50.387  0.342E-02
 50.397  0.339E-02
 50.407  0.342E-02
 50.417  0.346E-02
 50.427  0.350E-02
 50.437  0.355E-02
 50.447  0.359E-02
 50.457  0.363E-02
 50.467  0.368E-02
 50.477  0.373E-02
 50.487  0.379E-02
 50.497  0.385E-02
 50.507  0.392E-02
 50.517  0.398E-02
 50.527  0.404E-02
 50.537  0.410E-02
 50.547  0.417E-02
 50.557  0.423E-02
 50.567  0.430E-02
 50.577  0.437E-02
 50.587  0.444E-02
 50.597  0.402E-02
 50.607  0.398E-02
 50.617  0.393E-02
 50.627  0.388E-02
 50.637  0.383E-02
 50.647  0.377E-02
 50.657  0.369E-02
 50.667  0.362E-02
 50.677  0.355E-02
 50.687  0.349E-02
 50.697  0.343E-02
 50.707  0.337E-02
 50.717  0.331E-02
 50.727  0.326E-02
 50.737  0.321E-02
 50.747  0.315E-02
 50.757  0.310E-02
 50.767  0.306E-02
 50.777  0.303E-02
 50.787  0.299E-02
 50.797  0.296E-02
 50.807  0.293E-02
 50.817  0.290E-02
 50.827  0.286E-02
 50.837  0.283E-02
 50.847  0.279E-02
 50.857  0.276E-02
 50.867  0.273E-02
 50.877  0.270E-02
 50.887  0.266E-02
 50.897  0.263E-02
 50.907  0.258E-02
 50.917  0.255E-02
 50.927  0.251E-02
 50.937  0.248E-02
 50.947  0.244E-02
 50.957  0.239E-02
 50.967  0.237E-02
 50.977  0.234E-02
 50.987  0.231E-02
 50.997  0.228E-02
 51.007  0.226E-02
 51.017  0.223E-02
 51.027  0.221E-02
 51.037  0.218E-02
 51.047  0.216E-02
 51.057  0.214E-02
 51.067  0.210E-02
 51.077  0.208E-02
 51.087  0.206E-02
 51.097  0.204E-02
 51.107  0.202E-02
 51.117  0.200E-02
 51.127  0.198E-02
 51.137  0.196E-02
 51.147  0.194E-02
 51.157  0.192E-02
 51.167  0.190E-02
 51.177  0.188E-02
 51.187  0.186E-02
 51.197  0.184E-02
 51.207  0.182E-02
 51.217  0.179E-02
 51.227  0.177E-02
 51.237  0.175E-02
 51.247  0.173E-02
 51.257  0.170E-02
 51.267  0.168E-02
 51.277  0.166E-02
 51.287  0.164E-02
 51.297  0.161E-02
 51.307  0.159E-02
 51.317  0.158E-02
 51.327  0.158E-02
 51.337  0.157E-02
 51.347  0.156E-02
 51.357  0.155E-02
 51.367  0.154E-02
 51.377  0.152E-02
 51.387  0.151E-02
 51.397  0.150E-02
 51.407  0.149E-02
 51.417  0.148E-02
 51.427  0.148E-02
 51.437  0.148E-02
 51.447  0.148E-02
 51.457  0.146E-02
 51.467  0.146E-02
 51.477  0.146E-02
 51.487  0.145E-02
 51.497  0.145E-02
 51.507  0.145E-02
 51.517  0.145E-02
 51.527  0.145E-02
 51.537  0.145E-02
 51.547  0.145E-02
 51.557  0.145E-02
 51.567  0.146E-02
 51.577  0.146E-02
 51.587  0.146E-02
 51.597  0.146E-02
 51.607  0.146E-02
 51.617  0.146E-02
 51.627  0.145E-02
 51.637  0.145E-02
 51.647  0.145E-02
 51.657  0.145E-02
 51.667  0.145E-02
 51.677  0.145E-02
 51.687  0.145E-02
 51.697  0.145E-02
 51.707  0.146E-02
 51.717  0.146E-02
 51.727  0.146E-02
 51.737  0.147E-02
 51.747  0.147E-02
 51.757  0.147E-02
 51.767  0.148E-02
 51.777  0.148E-02
 51.787  0.148E-02
 51.797  0.148E-02
 51.807  0.148E-02
 51.817  0.148E-02
 51.827  0.149E-02
 51.837  0.149E-02
 51.847  0.149E-02
 51.857  0.148E-02
 51.867  0.148E-02
 51.877  0.148E-02
 51.887  0.147E-02
 51.897  0.147E-02
 51.907  0.147E-02
 51.917  0.147E-02
 51.927  0.147E-02
 51.937  0.147E-02
 51.947  0.147E-02
 51.957  0.146E-02
 51.967  0.146E-02
 51.977  0.146E-02
 51.987  0.146E-02
 51.997  0.145E-02
 52.007  0.145E-02
 52.017  0.145E-02
 52.027  0.144E-02
 52.037  0.144E-02
 52.047  0.144E-02
 52.057  0.143E-02
 52.067  0.143E-02
 52.077  0.143E-02
 52.087  0.142E-02
 52.097  0.142E-02
 52.107  0.142E-02
 52.117  0.142E-02
 52.127  0.141E-02
 52.137  0.141E-02
 52.147  0.141E-02
 52.157  0.140E-02
 52.167  0.140E-02
 52.177  0.140E-02
 52.187  0.139E-02
 52.197  0.138E-02
 52.207  0.137E-02
 52.217  0.137E-02
 52.227  0.136E-02
 52.237  0.136E-02
 52.247  0.135E-02
 52.257  0.135E-02
 52.267  0.134E-02
 52.277  0.133E-02
 52.287  0.133E-02
 52.297  0.132E-02
 52.307  0.131E-02
 52.317  0.131E-02
 52.327  0.130E-02
 52.337  0.129E-02
 52.347  0.128E-02
 52.357  0.128E-02
 52.367  0.127E-02
 52.377  0.126E-02
 52.387  0.125E-02
 52.397  0.124E-02
 52.407  0.123E-02
 52.417  0.122E-02
 52.427  0.121E-02
 52.437  0.120E-02
 52.447  0.118E-02
 52.457  0.116E-02
 52.467  0.115E-02
 52.477  0.114E-02
 52.487  0.112E-02
 52.497  0.111E-02
 52.507  0.109E-02
 52.517  0.108E-02
 52.527  0.106E-02
 52.537  0.105E-02
 52.547  0.103E-02
 52.557  0.101E-02
 52.567  0.996E-03
 52.577  0.977E-03
 52.587  0.956E-03
 52.597  0.935E-03
 52.607  0.913E-03
 52.617  0.889E-03
 52.627  0.864E-03
 52.637  0.839E-03
 52.647  0.812E-03
 52.657  0.784E-03
 52.667  0.754E-03
 52.677  0.724E-03
 52.687  0.692E-03
 52.697  0.662E-03
 52.707  0.633E-03
 52.717  0.606E-03
 52.727  0.583E-03
 52.737  0.563E-03
 52.747  0.546E-03
 52.757  0.532E-03
 52.767  0.522E-03
 52.777  0.516E-03
 52.787  0.503E-03
 52.797  0.476E-03
 52.807  0.435E-03
 52.817  0.401E-03
 52.827  0.376E-03
 52.837  0.360E-03
 52.847  0.353E-03
 52.857  0.351E-03
 52.867  0.346E-03
 52.877  0.341E-03
 52.887  0.333E-03
 52.897  0.324E-03
 52.907  0.314E-03
 52.917  0.302E-03
 52.927  0.288E-03
 52.937  0.272E-03
 52.947  0.255E-03
 52.957  0.236E-03
 52.967  0.215E-03
 52.977  0.193E-03
 52.987  0.170E-03
 52.997  0.145E-03
 53.007  0.119E-03
 53.017  0.901E-04
 53.027  0.889E-04
 53.037  0.885E-04
 53.047  0.880E-04
 53.057  0.876E-04
 53.067  0.872E-04
 53.077  0.866E-04
 53.087  0.862E-04
 53.097  0.858E-04
 53.107  0.854E-04
 53.117  0.850E-04
 53.127  0.847E-04
 53.137  0.843E-04
 53.147  0.838E-04
 53.157  0.834E-04
 53.167  0.831E-04
 53.177  0.827E-04
 53.187  0.824E-04
 53.197  0.820E-04
 53.207  0.817E-04
 53.217  0.813E-04
 53.227  0.809E-04
 53.237  0.805E-04
 53.247  0.802E-04
 53.257  0.798E-04
 53.267  0.795E-04
 53.277  0.792E-04
 53.287  0.788E-04
 53.297  0.784E-04
 53.307  0.781E-04
 53.317  0.778E-04
 53.327  0.774E-04
 53.337  0.771E-04
 53.347  0.768E-04
 53.357  0.765E-04
 53.367  0.761E-04
 53.377  0.758E-04
 53.387  0.755E-04
 53.397  0.751E-04
 53.407  0.748E-04
 53.417  0.745E-04
 53.427  0.742E-04
 53.437  0.739E-04
 53.447  0.735E-04
 53.457  0.732E-04
 53.467  0.729E-04
 53.477  0.726E-04
 53.487  0.723E-04
 53.497  0.721E-04
 53.507  0.718E-04
 53.517  0.715E-04
 53.527  0.712E-04
 53.537  0.709E-04
 53.547  0.706E-04
 53.557  0.703E-04
 53.567  0.699E-04
 53.577  0.697E-04
 53.587  0.694E-04
 53.597  0.691E-04
 53.607  0.688E-04
 53.617  0.685E-04
 53.627  0.683E-04
 53.637  0.680E-04
 53.647  0.677E-04
 53.657  0.674E-04
 53.667  0.672E-04
 53.677  0.669E-04
 53.687  0.666E-04
 53.697  0.663E-04
 53.707  0.661E-04
 53.717  0.658E-04
 53.727  0.655E-04
 53.737  0.653E-04
 53.747  0.650E-04
 53.757  0.647E-04
 53.767  0.644E-04
 53.777  0.642E-04
 53.787  0.639E-04
 53.797  0.636E-04
 53.807  0.633E-04
 53.817  0.631E-04
 53.827  0.628E-04
 53.837  0.625E-04
 53.847  0.623E-04
 53.857  0.620E-04
 53.867  0.617E-04
 53.877  0.614E-04
 53.887  0.612E-04
 53.897  0.610E-04
 53.907  0.607E-04
 53.917  0.604E-04
 53.927  0.602E-04
 53.937  0.599E-04
 53.947  0.596E-04
 53.957  0.593E-04
 53.967  0.591E-04
 53.977  0.589E-04
 53.987  0.586E-04
 53.997  0.583E-04
 54.007  0.580E-04
 54.017  0.578E-04
 54.027  0.575E-04
 54.037  0.573E-04
 54.047  0.570E-04
 54.057  0.567E-04
 54.067  0.564E-04
 54.077  0.561E-04
 54.087  0.559E-04
 54.097  0.617E-04
 54.107  0.636E-04
 54.117  0.613E-04
 54.127  0.591E-04
 54.137  0.569E-04
 54.147  0.548E-04
 54.157  0.527E-04
 54.167  0.507E-04
 54.177  0.487E-04
 54.187  0.468E-04
 54.197  0.450E-04
 54.207  0.432E-04
 54.217  0.414E-04
 54.227  0.397E-04
 54.237  0.380E-04
 54.247  0.364E-04
 54.257  0.349E-04
 54.267  0.333E-04
 54.277  0.319E-04
 54.287  0.304E-04
 54.297  0.290E-04
 54.307  0.277E-04
 54.317  0.264E-04
 54.327  0.251E-04
 54.337  0.239E-04
 54.347  0.227E-04
 54.357  0.216E-04
 54.367  0.205E-04
 54.377  0.194E-04
 54.387  0.184E-04
 54.397  0.174E-04
 54.407  0.164E-04
 54.417  0.155E-04
 54.427  0.146E-04
 54.437  0.138E-04
 54.447  0.130E-04
 54.457  0.122E-04
 54.467  0.114E-04
 54.477  0.107E-04
 54.487  0.100E-04
 54.497  0.937E-05
 54.507  0.874E-05
 54.517  0.814E-05
 54.527  0.757E-05
 54.537  0.702E-05
 54.547  0.650E-05
 54.557  0.601E-05
 54.567  0.555E-05
 54.577  0.511E-05
 54.587  0.469E-05
 54.597  0.429E-05
 54.607  0.392E-05
 54.617  0.357E-05
 54.627  0.325E-05
 54.637  0.294E-05
 54.647  0.265E-05
 54.657  0.238E-05
 54.667  0.213E-05
 54.677  0.190E-05
 54.687  0.169E-05
 54.697  0.149E-05
 54.707  0.131E-05
 54.717  0.114E-05
 54.727  0.993E-06
 54.737  0.856E-06
 54.747  0.732E-06
 54.757  0.620E-06
 54.767  0.521E-06
 54.777  0.433E-06
 54.787  0.355E-06
 54.797  0.287E-06
 54.807  0.229E-06
 54.817  0.179E-06
 54.827  0.137E-06
 54.837  0.102E-06
 54.847  0.733E-07
 54.857  0.507E-07
 54.867  0.334E-07
 54.877  0.205E-07
 54.887  0.114E-07
 54.897  0.555E-08
 54.907  0.214E-08
 54.917  0.522E-09
 54.927  0.335E-10
 54.937  0.000E+00
